clc
clear all
close all
format short
%% Energy dependence mean free path

%E: eV & sigma: barns & mfp: cm 
%1H(n,el)
hn_el = [1E-05       1159.66;
          1.10304E-05 1104.18;
          1.21669E-05 1051.36;
          1.34206E-05 1001.07;
          1.48034E-05 953.187;
          1.63286E-05 907.595;
          1.80111E-05 864.185;
          1.98669E-05 822.853;
          2.19139E-05 783.5  ;
          2.41719E-05 746.031;
          2.66625E-05 710.356;
          2.94097E-05 676.389;
          3.244E-05   644.049;
          3.57825E-05 613.258;
          3.94694E-05 583.941;
          4.35362E-05 556.029;
          4.80221E-05 529.454;
          5.29701E-05 504.152;
          5.8428E-05  480.062;
          6.44482E-05 457.127;
          7.10888E-05 435.291;
          7.84136E-05 414.502;
          8.64931E-05 394.71 ;
          9.54051E-05 375.866;
          0.000105235 357.927;
          0.000116078 340.849;
          0.000128039 324.59 ;
          0.000141232 309.112;
          0.000155784 294.377;
          0.000171835 280.349;
          0.00018954  266.997;
          0.00020907  254.286;
          0.000230612 242.186;
          0.000254374 230.669;
          0.000280584 219.707;
          0.000309494 209.273;
          0.000341383 199.343;
          0.000376558 189.891;
          0.000415358 180.897;
          0.000458155 172.337;
          0.000505362 164.191;
          0.000557433 156.441;
          0.000614869 149.067;
          0.000678223 142.051;
          0.000748105 135.376;
          0.000825188 129.027;
          0.000910213 122.988;
          0.001004    117.245;
          0.00110745  111.784;
          0.00122155  106.591;
          0.00134742  101.655;
          0.00148625  96.9629;
          0.00163939  92.5038;
          0.00180831  88.2668;
          0.00200871  83.9612;
          0.0022312   79.889 ;
          0.00247845  76.0351;
          0.00275297  72.3923;
          0.00305805  68.9472;
          0.00339677  65.6932;
          0.0037732   62.6184;
          0.00419113  59.7169;
          0.00465558  56.9778;
          0.00517125  54.3961;
          0.00574431  51.9619;
          0.00638057  49.6706;
          0.00708766  47.5134;
          0.00787271  45.4862;
          0.00874515  43.581 ;
          0.00971379  41.794 ;
          0.0108658   40.0106;
          0.0121545   38.3484;
          0.013596    36.8013;
          0.0152085   35.3637;
          0.0170122   34.0302;
          0.0191641   32.7212;
          0.0215871   31.5182;
          0.0243176   30.4143;
          0.0252419   30.0881;
          0.0253      30.0683;
          0.0286998   29.0336;
          0.0325565   28.0955;
          0.037192    27.2028;
          0.0424854   26.4036;
          0.0488745   25.6547;
          0.0566211   24.9617;
          0.0660549   24.3284;
          0.0776004   23.7567;
          0.0924546   23.2271;
          0.111701    22.7479;
          0.136864    22.3235;
          0.171253    21.9446;
          0.220371    21.6084;
          0.293678    21.3157;
          0.41105     21.0645;
          0.612785    20.8576;
          1.0076      20.6923;
          1.96022     20.5676;
          5.33729     20.4838;
          43.3445     20.4366;
          10372.7     19.1491;
          19716.6     18.1341;
          30226.7     17.1266;
          38355.2     16.4389;
          47658.6     15.72  ;
          57765.5     15.0198;
          67318.5     14.4249;
          81700.9     13.6234;
          97335.2     12.868 ;
          113126      12.199 ;
          130000      11.5707;
          145418      11.0732;
          163402      10.5453;
          183827      10.0201;
          204252      9.55722;
          224678      9.14601;
          246092      8.76163;
          267388      8.41877;
          292019      8.06353;
          322257      7.67657;
          354594      7.31633;
          402822      6.85533;
          446208      6.50393;
          493639      6.16975;
          557760      5.78944;
          608465      5.53056;
          663820      5.283  ;
          714883      5.08007;
          771312      4.88001;
          834340      4.68061;
          918107      4.44852;
          1E+06       4.24951;
          1.11552E+06 4.00986;
          1.21693E+06 3.8266 ;
          1.32764E+06 3.65106;
          1.42977E+06 3.50675;
          1.54262E+06 3.36392;
          1.66868E+06 3.22087;
          1.83827E+06 3.05132;
          2E+06       2.90839;
          2.23104E+06 2.73227;
          2.43386E+06 2.59638;
          2.63668E+06 2.47531;
          2.85953E+06 2.35649;
          3.06379E+06 2.258  ;
          3.29093E+06 2.15863;
          3.54594E+06 2.05745;
          3.8808E+06  1.93913;
          4.2E+06     1.83821;
          4.63245E+06 1.71844;
          5.07054E+06 1.61197;
          5.47618E+06 1.5241 ;
          5.88183E+06 1.44508;
          6.28747E+06 1.37359;
          6.69311E+06 1.30855;
          7.09876E+06 1.24923;
          7.60581E+06 1.18169;
          8.11287E+06 1.12066;
          8.61992E+06 1.06522;
          9.12697E+06 1.01464;
          9.63403E+06 0.96830;
          1E+07       0.93687;
          1.01411E+07 0.92569;
          1.02842E+07 0.91435;
          1.04292E+07 0.90286;
          1.05E+07    0.89725;
          1.06481E+07 0.88638;
          1.07984E+07 0.87536;
          1.09507E+07 0.86419;
          1.1E+07     0.86058;
          1.11552E+07 0.85001;
          1.13126E+07 0.83930;
          1.14722E+07 0.82843;
          1.15E+07    0.82654;
          1.16622E+07 0.81626;
          1.18268E+07 0.80584;
          1.19936E+07 0.79527;
          1.2E+07     0.79486;
          1.21693E+07 0.78486;
          1.2341E+07  0.77472;
          1.25E+07    0.76532;
          1.26764E+07 0.75558;
          1.28552E+07 0.74570;
          1.3E+07     0.73770;
          1.31834E+07 0.72822;
          1.33694E+07 0.71859;
          1.35E+07    0.71184;
          1.36905E+07 0.70259;
          1.38836E+07 0.69321;
          1.4E+07     0.68756;
          1.41975E+07 0.67880;
          1.43978E+07 0.66992;
          1.46009E+07 0.66092;
          1.48069E+07 0.65179;
          1.5E+07     0.64323;
          1.52116E+07 0.63488;
          1.54262E+07 0.62642;
          1.56439E+07 0.61784;
          1.58646E+07 0.60913;
          1.6E+07     0.60379;
          1.62257E+07 0.59582;
          1.64546E+07 0.58774;
          1.66868E+07 0.57954;
          1.69222E+07 0.57123;
          1.7E+07     0.56848;
          1.72398E+07 0.56086;
          1.74831E+07 0.55313;
          1.77297E+07 0.54529;
          1.79799E+07 0.53734;
          1.8E+07     0.53670;
          1.82539E+07 0.52940;
          1.85115E+07 0.52200;
          1.87726E+07 0.51449;
          1.9E+07     0.50796;
          1.92681E+07 0.50095;
          1.95399E+07 0.49385;
          1.98156E+07 0.48665;
          2E+07       0.48184];

%h(n,y)
hn_y = [1E-05       16.7288     ;
         1.10304E-05 15.9283     ;
         1.21669E-05 15.1661     ;
         1.34206E-05 14.4404     ;
         1.48034E-05 13.7494     ;
         1.63286E-05 13.0915     ;
         1.80111E-05 12.4651     ;
         1.98669E-05 11.8686     ;
         2.19139E-05 11.3007     ;
         2.41719E-05 10.7599     ;
         2.66625E-05 10.2451     ;
         2.94097E-05 9.75484     ;
         3.244E-05   9.28806     ;
         3.57825E-05 8.84362     ;
         3.94694E-05 8.42044     ;
         4.35362E-05 8.01752     ;
         4.80221E-05 7.63387     ;
         5.29701E-05 7.26858     ;
         5.8428E-05  6.92077     ;
         6.44482E-05 6.58961     ;
         7.10888E-05 6.27429     ;
         7.84136E-05 5.97406     ;
         8.64931E-05 5.6882      ;
         9.54051E-05 5.41601     ;
         0.000105235 5.15685     ;
         0.000116078 4.91009     ;
         0.000128039 4.67514     ;
         0.000141232 4.45143     ;
         0.000155784 4.23842     ;
         0.000171835 4.03561     ;
         0.00018954  3.8425      ;
         0.00020907  3.65864     ;
         0.000230612 3.48357     ;
         0.000254374 3.31688     ;
         0.000280584 3.15816     ;
         0.000309494 3.00704     ;
         0.000341383 2.86315     ;
         0.000376558 2.72615     ;
         0.000415358 2.5957      ;
         0.000458155 2.47149     ;
         0.000505362 2.35323     ;
         0.000557433 2.24062     ;
         0.000614869 2.13341     ;
         0.000678223 2.03132     ;
         0.000748105 1.93412     ;
         0.000825188 1.84157     ;
         0.000910213 1.75345     ;
         0.001004    1.66955     ;
         0.00110745  1.58966     ;
         0.00122155  1.51359     ;
         0.00134742  1.44117     ;
         0.00148625  1.3722      ;
         0.00163939  1.30654     ;
         0.00180831  1.24402     ;
         0.00199463  1.1845      ;
         0.00220016  1.12782     ;
         0.00242685  1.07385     ;
         0.00267691  1.02247     ;
         0.00295273  0.973539    ;
         0.00325697  0.926955    ;
         0.00359256  0.882599    ;
         0.00396272  0.840366    ;
         0.00437103  0.800154    ;
         0.00482141  0.761866    ;
         0.00531819  0.72541     ;
         0.00586616  0.690698    ;
         0.00647059  0.657648    ;
         0.0071373   0.626179    ;
         0.00787271  0.596215    ;
         0.00868389  0.567686    ;
         0.00957865  0.540522    ;
         0.0105656   0.514657    ;
         0.0116543   0.49003     ;
         0.0128551   0.466582    ;
         0.0141796   0.444256    ;
         0.0156406   0.422998    ;
         0.0172522   0.402757    ;
         0.0190298   0.383485    ;
         0.0209906   0.365134    ;
         0.0231534   0.347662    ;
         0.0252419   0.332969    ;
         0.0253      0.332587    ;
         0.0279068   0.316672    ;
         0.0307823   0.301519    ;
         0.033954    0.287091    ;
         0.0374525   0.273354    ;
         0.0413115   0.260273    ;
         0.0455681   0.247819    ;
         0.0502633   0.235961    ;
         0.0554423   0.22467     ;
         0.0611549   0.213919    ;
         0.0674561   0.203683    ;
         0.0744066   0.193936    ;
         0.0820732   0.184656    ;
         0.0905297   0.17582     ;
         0.0998577   0.167407    ;
         0.110147    0.159397    ;
         0.121496    0.151769    ;
         0.134014    0.144507    ;
         0.147823    0.137592    ;
         0.163054    0.131008    ;
         0.179855    0.124739    ;
         0.198386    0.118771    ;
         0.218827    0.113087    ;
         0.241375    0.107676    ;
         0.266245    0.102524    ;
         0.293678    0.0976177   ;
         0.323938    0.0929466   ;
         0.357316    0.088499    ;
         0.394132    0.0842642   ;
         0.434743    0.0802321   ;
         0.479537    0.076393    ;
         0.528947    0.0727376   ;
         0.583448    0.0692573   ;
         0.643565    0.0659439   ;
         0.709876    0.0627896   ;
         0.78302     0.0597871   ;
         0.8637      0.0569293   ;
         0.952693    0.0542093   ;
         1.05086     0.05162     ;
         1.15913     0.0491544   ;
         1.27857     0.0468057   ;
         1.4103      0.0445677   ;
         1.55562     0.0424352   ;
         1.7159      0.0404042   ;
         1.89271     0.0384703   ;
         2.08772     0.0366296   ;
         2.30284     0.0348775   ;
         2.54012     0.0332093   ;
         2.80184     0.0316207   ;
         3.09053     0.0301073   ;
         3.40897     0.0286657   ;
         3.76022     0.0272936   ;
         4.14767     0.0259874   ;
         4.57503     0.0247435   ;
         5.04642     0.0235602   ;
         5.56639     0.0224345   ;
         6.13994     0.0213613   ;
         6.77258     0.0203391   ;
         7.4704      0.0193658   ;
         8.24013     0.018437    ;
         9.08917     0.0175535   ;
         10.0257     0.0167136   ;
         11.0587     0.0159146   ;
         12.2842     0.0151      ;
         13.5499     0.0143774   ;
         14.9461     0.0136909   ;
         16.6016     0.012988    ;
         18.3121     0.0123659   ;
         20.199      0.0117742   ;
         22.2802     0.0112111   ;
         24.7492     0.0106372   ;
         27.1081     0.0101636   ;
         30.1122     0.00964453  ;
         33.4475     0.00914847  ;
         36.8938     0.00871101  ;
         40.6952     0.00829518  ;
         44.8884     0.00789673  ;
         49.5135     0.00751862  ;
         55.0005     0.00713305  ;
         60.6676     0.0067927   ;
         66.9186     0.00646638  ;
         73.8137     0.00615735  ;
         81.4192     0.00586288  ;
         89.8084     0.00558117  ;
         99.7559     0.00529493  ;
         110.811     0.00502322  ;
         121.372     0.00480055  ;
         132.947     0.00458554  ;
         145.618     0.00438181  ;
         158.387     0.00420137  ;
         173.492     0.0040134   ;
         190.027     0.00383461  ;
         206.691     0.00367636  ;
         226.402     0.00351154  ;
         246.256     0.00336744  ;
         267.85      0.00322739  ;
         291.338     0.00309442  ;
         314.667     0.00297688  ;
         344.675     0.00284336  ;
         377.526     0.00271646  ;
         410.632     0.00260441  ;
         449.791     0.00248741  ;
         492.661     0.00237642  ;
         535.863     0.00227773  ;
         578.799     0.00219107  ;
         642.909     0.00207711  ;
         694.423     0.0019991   ;
         750.027     0.00192211  ;
         833.143     0.00182239  ;
         906.203     0.00174713  ;
         985.669     0.0016744   ;
         1072.1      0.00160426  ;
         1157.95     0.00154269  ;
         1277.26     0.00146682  ;
         1369.94     0.0014161   ;
         1500.58     0.00135156  ;
         1666.79     0.0012808   ;
         1800.35     0.00123168  ;
         1958.22     0.00117996  ;
         2144.86     0.0011259   ;
         2349.4      0.00107399  ;
         2519.88     0.00103617  ;
         2760.05     0.000988363 ;
         3044.43     0.000939396 ;
         3358.12     0.000892229 ;
         3627.19     0.000857159 ;
         3917.63     0.000823282 ;
         4291.23     0.000784503 ;
         4667.54     0.000750337 ;
         5112.4      0.000715055 ;
         5560.72     0.000683434 ;
         6133.68     0.000648361 ;
         6625.14     0.000621813 ;
         7155.64     0.000596415 ;
         7838.03     0.000567157 ;
         8585.08     0.000539281 ;
         9403.79     0.000512647 ;
         10086.1     0.000492956 ;
         12016.2     0.000445989 ;
         14117.2     0.000406289 ;
         16105.4     0.000375782 ;
         18127       0.000349965 ;
         20134.8     0.000328165 ;
         22209.4     0.000308776 ;
         24327.4     0.000291543 ;
         26460.7     0.000276267 ;
         28380.7     0.000263949 ;
         30226.7     0.000253279 ;
         35262.9     0.000228398 ;
         40282.2     0.000208376 ;
         45375.2     0.000191592 ;
         50352.7     0.00017773  ;
         55388       0.000165714 ;
         60667       0.000154842 ;
         65458.5     0.000146151 ;
         70700       0.000137772 ;
         75829.9     0.000130481 ;
         81128.7     0.000123755 ;
         86410.1     0.000117734 ;
         91269.7     0.000112705 ;
         97019.9     0.000107323 ;
         101411      0.000103599 ;
         110776      9.64115E-05 ;
         120490      9.00269E-05 ;
         130917      8.41544E-05 ;
         141400      7.90534E-05 ;
         151660      7.46957E-05 ;
         161129      7.11322E-05 ;
         171199      6.77721E-05 ;
         182335      6.44932E-05 ;
         192681      6.17797E-05 ;
         201411      5.97151E-05 ;
         221552      5.55867E-05 ;
         240980      5.22918E-05 ;
         261834      4.93671E-05 ;
         281975      4.7E-05     ;
         302116      4.50011E-05 ;
         322257      4.33031E-05 ;
         344797      4.1703E-05  ;
         364670      4.04962E-05 ;
         388080      3.92918E-05 ;
         411366      3.82791E-05 ;
         443104      3.71419E-05 ;
         469780      3.63954E-05 ;
         503527      3.55999E-05 ;
         553880      3.47437E-05 ;
         608465      3.41345E-05 ;
         663820      3.37531E-05 ;
         719891      3.35423E-05 ;
         800000      3.34473E-05 ;
         925574      3.36424E-05 ;
         1.07256E+06 3.41087E-05 ;
         1.54262E+06 3.57793E-05 ;
         1.85115E+06 3.65902E-05 ;
         2.08585E+06 3.69863E-05 ;
         2.35963E+06 3.72538E-05 ;
         2.6E+06     3.7345E-05  ;
         3.08525E+06 3.72024E-05 ;
         3.72841E+06 3.66955E-05 ;
         6.21402E+06 3.41376E-05 ;
         7.24969E+06 3.32533E-05 ;
         8.74153E+06 3.21889E-05 ;
         1E+07       3.14376E-05 ;
         1.01411E+07 3.13686E-05 ;
         1.02842E+07 3.12986E-05 ;
         1.04292E+07 3.12277E-05 ;
         1.05764E+07 3.11558E-05 ;
         1.07256E+07 3.10828E-05 ;
         1.08769E+07 3.10089E-05 ;
         1.10304E+07 3.09338E-05 ;
         1.1186E+07  3.08578E-05 ;
         1.13438E+07 3.07806E-05 ;
         1.15038E+07 3.07024E-05 ;
         1.16661E+07 3.0623E-05  ;
         1.18307E+07 3.05426E-05 ;
         1.19976E+07 3.0461E-05  ;
         1.21669E+07 3.03782E-05 ;
         1.23386E+07 3.02943E-05 ;
         1.25E+07    3.02154E-05 ;
         1.26764E+07 3.01422E-05 ;
         1.28552E+07 3.0068E-05  ;
         1.30366E+07 2.99927E-05 ;
         1.32205E+07 2.99164E-05 ;
         1.3407E+07  2.9839E-05  ;
         1.35961E+07 2.97604E-05 ;
         1.3788E+07  2.96808E-05 ;
         1.39825E+07 2.96001E-05 ;
         1.41798E+07 2.95182E-05 ;
         1.43798E+07 2.94352E-05 ;
         1.45827E+07 2.9351E-05  ;
         1.47884E+07 2.92656E-05 ;
         1.4997E+07  2.9179E-05  ;
         1.52086E+07 2.90912E-05 ;
         1.54232E+07 2.90021E-05 ;
         1.56408E+07 2.89118E-05 ;
         1.58615E+07 2.88203E-05 ;
         1.60852E+07 2.87274E-05 ;
         1.63122E+07 2.86332E-05 ;
         1.65423E+07 2.85377E-05 ;
         1.67757E+07 2.84408E-05 ;
         1.70124E+07 2.83426E-05 ;
         1.72524E+07 2.8243E-05  ;
         1.74958E+07 2.81419E-05 ;
         1.77426E+07 2.80395E-05 ;
         1.79929E+07 2.79356E-05 ;
         1.82468E+07 2.78302E-05 ;
         1.85042E+07 2.77234E-05 ;
         1.87653E+07 2.7615E-05  ;
         1.9E+07     2.75176E-05 ;
         1.92681E+07 2.74078E-05 ;
         1.95399E+07 2.72964E-05 ;
         1.98156E+07 2.71835E-05 ;
         2E+07       2.71079E-05];

%16o(n,el)
On_el = [1E-05       54.1469  ;
 1.10304E-05 51.567   ;
 1.21669E-05 49.1112  ;
 1.34206E-05 46.7734  ;
 1.48034E-05 44.548   ;
 1.63286E-05 42.4298  ;
 1.80111E-05 40.4137  ;
 1.98669E-05 38.4947  ;
 2.19139E-05 36.6683  ;
 2.41719E-05 34.93    ;
 2.66625E-05 33.2758  ;
 2.94097E-05 31.7016  ;
 3.244E-05   30.2036  ;
 3.57825E-05 28.7782  ;
 3.94694E-05 27.422   ;
 4.35362E-05 26.1318  ;
 4.80221E-05 24.9044  ;
 5.29701E-05 23.7368  ;
 5.8428E-05  22.6263  ;
 6.44482E-05 21.5702  ;
 7.10888E-05 20.566   ;
 7.84136E-05 19.6112  ;
 8.64931E-05 18.7035  ;
 9.54051E-05 17.8408  ;
 0.000105235 17.0209  ;
 0.000116078 16.242   ;
 0.000128942 15.4504  ;
 0.000143224 14.7018  ;
 0.000159096 13.9933  ;
 0.000176718 13.3237  ;
 0.000196302 12.6905  ;
 0.000218044 12.0925  ;
 0.000242208 11.5274  ;
 0.000269035 10.9942  ;
 0.00029885  10.4909  ;
 0.000331951 10.0166  ;
 0.000368737 9.56946  ;
 0.000409579 9.14861  ;
 0.000454969 8.75245  ;
 0.000505362 8.38022  ;
 0.000561366 8.03045  ;
 0.000623544 7.70244  ;
 0.000697495 7.37517  ;
 0.000780217 7.0702   ;
 0.00087275  6.78644  ;
 0.000976257 6.52283  ;
 0.00109204  6.27837  ;
 0.00123017  6.03848  ;
 0.00138571  5.8181   ;
 0.00156099  5.61595  ;
 0.00177075  5.42075  ;
 0.00200871  5.24369  ;
 0.0022946   5.07518  ;
 0.00262131  4.9241   ;
 0.00301551  4.78252  ;
 0.00349329  4.65147  ;
 0.00407533  4.5316   ;
 0.00478787  4.42332  ;
 0.00570408  4.32301  ;
 0.00689182  4.23218  ;
 0.00844395  4.15175  ;
 0.0105656   4.07992  ;
 0.013596    4.01618  ;
 0.0181197   3.96069  ;
 0.0252419   3.91363  ;
 0.0253      3.91335  ;
 0.0374525   3.87459  ;
 0.0611549   3.84332  ;
 0.116661    3.81981  ;
 0.306721    3.80376  ;
 2.1202      3.79533  ;
 102814      3.58115  ;
 171610      3.46093  ;
 208585      3.41134  ;
 245055      3.37935  ;
 260000      3.37456  ;
 281975      3.38604  ;
 300000      3.41515  ;
 320000      3.48922  ;
 340000      3.64273  ;
 360000      3.96523  ;
 380000      4.70501  ;
 390000      5.43796  ;
 395000      5.97633  ;
 400000      6.68575  ;
 405000      7.62576  ;
 410000      8.86667  ;
 415000      10.4667  ;
 420000      12.4044  ;
 425000      14.4456  ;
 430000      16.0351  ;
 434000      16.5208  ;
 435125      16.4839  ;
 440000      15.639   ;
 445000      13.9143  ;
 450000      11.98    ;
 455000      10.2379  ;
 460000      8.81658  ;
 465000      7.7037   ;
 470000      6.84289  ;
 475000      6.17559  ;
 480000      5.65389  ;
 500000      4.41782  ;
 520000      3.8313   ;
 540000      3.5036   ;
 560000      3.29688  ;
 580000      3.15413  ;
 600000      3.0486   ;
 624374      2.95199  ;
 644515      2.8878   ;
 669311      2.82385  ;
 700000      2.76056  ;
 730047      2.71603  ;
 760000      2.68597  ;
 780000      2.67746  ;
 800000      2.68074  ;
 820000      2.70035  ;
 835000      2.73117  ;
 845000      2.76112  ;
 850000      2.77839  ;
 860000      2.82438  ;
 870000      2.88507  ;
 880000      2.9648   ;
 890000      3.06953  ;
 900000      3.20738  ;
 910000      3.38955  ;
 920000      3.63134  ;
 930000      3.95309  ;
 940000      4.38017  ;
 950000      4.93936  ;
 960000      5.64602  ;
 980000      7.30887  ;
 990000      7.93373  ;
 1E+06       8.12579  ;
 1.01E+06    7.83375  ;
 1.02E+06    7.21435  ;
 1.03E+06    6.48393  ;
 1.04E+06    5.78979  ;
 1.05E+06    5.19329  ;
 1.06E+06    4.70378  ;
 1.07E+06    4.30911  ;
 1.08E+06    3.99181  ;
 1.09E+06    3.7355   ;
 1.1E+06     3.52673  ;
 1.11E+06    3.35504  ;
 1.12E+06    3.21245  ;
 1.13E+06    3.09297  ;
 1.14E+06    2.99212  ;
 1.15E+06    2.90654  ;
 1.16E+06    2.83378  ;
 1.17E+06    2.77209  ;
 1.18E+06    2.72034  ;
 1.19E+06    2.67799  ;
 1.2E+06     2.64509  ;
 1.21E+06    2.62249  ;
 1.22E+06    2.61212  ;
 1.23E+06    2.61762  ;
 1.24E+06    2.64561  ;
 1.25E+06    2.70805  ;
 1.255E+06   2.75859  ;
 1.26E+06    2.82757  ;
 1.265E+06   2.92127  ;
 1.27E+06    3.04865  ;
 1.275E+06   3.2225   ;
 1.28E+06    3.46082  ;
 1.285E+06   3.78776  ;
 1.29E+06    4.23175  ;
 1.295E+06   4.81399  ;
 1.305E+06   6.21237  ;
 1.307E+06   6.43811  ;
 1.309E+06   6.60572  ;
 1.311E+06   6.7006   ;
 1.313E+06   6.71468  ;
 1.315E+06   6.64839  ;
 1.317E+06   6.5104   ;
 1.319E+06   6.31527  ;
 1.321E+06   6.08022  ;
 1.3275E+06  5.23675  ;
 1.33E+06    4.91808  ;
 1.335E+06   4.3785   ;
 1.34E+06    3.95092  ;
 1.345E+06   3.61938  ;
 1.35E+06    3.36261  ;
 1.36E+06    3.0026   ;
 1.37E+06    2.76983  ;
 1.38E+06    2.61023  ;
 1.39E+06    2.49481  ;
 1.4E+06     2.40742  ;
 1.41E+06    2.33864  ;
 1.42E+06    2.28271  ;
 1.43E+06    2.23595  ;
 1.44E+06    2.19594  ;
 1.46E+06    2.13003  ;
 1.48E+06    2.07672  ;
 1.51E+06    2.01132  ;
 1.55E+06    1.94069  ;
 1.59E+06    1.88389  ;
 1.613E+06   1.86379  ;
 1.616E+06   1.86285  ;
 1.625E+06   1.87046  ;
 1.628E+06   1.87787  ;
 1.632E+06   1.89852  ;
 1.634E+06   1.91639  ;
 1.636E+06   1.94323  ;
 1.638E+06   1.98497  ;
 1.64E+06    2.05315  ;
 1.641E+06   2.10419  ;
 1.642E+06   2.17371  ;
 1.643E+06   2.27101  ;
 1.644E+06   2.41213  ;
 1.64475E+06 2.56918  ;
 1.645E+06   2.62585  ;
 1.64575E+06 2.87559  ;
 1.646E+06   2.9645   ;
 1.64638E+06 3.14479  ;
 1.6465E+06  3.21061  ;
 1.64688E+06 3.44944  ;
 1.647E+06   3.53644  ;
 1.64731E+06 3.80036  ;
 1.6475E+06  3.97094  ;
 1.64775E+06 4.25242  ;
 1.64794E+06 4.47293  ;
 1.64806E+06 4.64195  ;
 1.64844E+06 5.22137  ;
 1.64856E+06 5.44136  ;
 1.64888E+06 6.05575  ;
 1.649E+06   6.31096  ;
 1.6495E+06  7.43294  ;
 1.64994E+06 8.32514  ;
 1.65E+06    8.42909  ;
 1.65012E+06 8.57498  ;
 1.65044E+06 8.85013  ;
 1.6505E+06  8.87225  ;
 1.65059E+06 8.84457  ;
 1.65094E+06 8.5828   ;
 1.65103E+06 8.46466  ;
 1.65119E+06 8.17708  ;
 1.6515E+06  7.55464  ;
 1.652E+06   6.43364  ;
 1.65238E+06 5.67198  ;
 1.6525E+06  5.43227  ;
 1.65269E+06 5.12254  ;
 1.65294E+06 4.72896  ;
 1.65306E+06 4.55501  ;
 1.65338E+06 4.17834  ;
 1.6535E+06  4.03714  ;
 1.65369E+06 3.8608   ;
 1.65394E+06 3.63969  ;
 1.65406E+06 3.5469   ;
 1.65494E+06 3.02951  ;
 1.65506E+06 2.97064  ;
 1.65575E+06 2.7274   ;
 1.656E+06   2.64339  ;
 1.65675E+06 2.47355  ;
 1.657E+06   2.42034  ;
 1.658E+06   2.27215  ;
 1.659E+06   2.16911  ;
 1.66E+06    2.09468  ;
 1.661E+06   2.03916  ;
 1.662E+06   1.9966   ;
 1.663E+06   1.96321  ;
 1.664E+06   1.93654  ;
 1.666E+06   1.89673  ;
 1.668E+06   1.86868  ;
 1.671E+06   1.83948  ;
 1.675E+06   1.81381  ;
 1.681E+06   1.78935  ;
 1.686E+06   1.77788  ;
 1.687E+06   1.77925  ;
 1.68791E+06 1.79077  ;
 1.688E+06   1.79881  ;
 1.68809E+06 1.81821  ;
 1.68881E+06 2.01917  ;
 1.68889E+06 2.04512  ;
 1.68894E+06 2.07087  ;
 1.68897E+06 2.09939  ;
 1.68899E+06 2.13073  ;
 1.68901E+06 2.16233  ;
 1.68903E+06 2.20802  ;
 1.68905E+06 2.26707  ;
 1.68906E+06 2.32208  ;
 1.68908E+06 2.38802  ;
 1.6891E+06  2.46689  ;
 1.68911E+06 2.56067  ;
 1.68912E+06 2.67173  ;
 1.68914E+06 2.8022   ;
 1.68916E+06 2.95436  ;
 1.68917E+06 3.12943  ;
 1.68918E+06 3.32807  ;
 1.6892E+06  3.5491   ;
 1.68922E+06 3.87369  ;
 1.68926E+06 4.65081  ;
 1.68928E+06 4.88799  ;
 1.6893E+06  5.09412  ;
 1.6893E+06  5.20806  ;
 1.68932E+06 5.29952  ;
 1.68932E+06 5.36586  ;
 1.68934E+06 5.40512  ;
 1.68934E+06 5.41611  ;
 1.68936E+06 5.39848  ;
 1.68936E+06 5.35276  ;
 1.68938E+06 5.28033  ;
 1.68938E+06 5.18329  ;
 1.6894E+06  4.99787  ;
 1.68942E+06 4.77451  ;
 1.68943E+06 4.52611  ;
 1.68947E+06 3.83248  ;
 1.68948E+06 3.58885  ;
 1.6895E+06  3.36485  ;
 1.68952E+06 3.16358  ;
 1.68953E+06 2.98681  ;
 1.68954E+06 2.83421  ;
 1.68956E+06 2.70464  ;
 1.68958E+06 2.59586  ;
 1.68959E+06 2.50565  ;
 1.68961E+06 2.42577  ;
 1.68962E+06 2.35269  ;
 1.68964E+06 2.29566  ;
 1.68966E+06 2.25073  ;
 1.68969E+06 2.20393  ;
 1.68972E+06 2.15025  ;
 1.6898E+06  2.06426  ;
 1.6899E+06  1.95916  ;
 1.68995E+06 1.91345  ;
 1.69E+06    1.87869  ;
 1.69005E+06 1.85843  ;
 1.69009E+06 1.84807  ;
 1.69025E+06 1.83792  ;
 1.692E+06   1.7659   ;
 1.696E+06   1.75267  ;
 1.74629E+06 1.67327  ;
 1.774E+06   1.6314   ;
 1.796E+06   1.58845  ;
 1.813E+06   1.55135  ;
 1.814E+06   1.55034  ;
 1.816E+06   1.55093  ;
 1.818E+06   1.55646  ;
 1.82E+06    1.5714   ;
 1.822E+06   1.60471  ;
 1.823E+06   1.6338   ;
 1.824E+06   1.67672  ;
 1.825E+06   1.74036  ;
 1.826E+06   1.83577  ;
 1.82675E+06 1.94226  ;
 1.827E+06   1.98058  ;
 1.82775E+06 2.14366  ;
 1.828E+06   2.20234  ;
 1.8285E+06  2.3672   ;
 1.829E+06   2.54045  ;
 1.8295E+06  2.7837   ;
 1.83E+06    3.03667  ;
 1.83038E+06 3.27768  ;
 1.8315E+06  4.02234  ;
 1.83188E+06 4.27304  ;
 1.832E+06   4.34843  ;
 1.8325E+06  4.54776  ;
 1.833E+06   4.72904  ;
 1.83322E+06 4.75429  ;
 1.8333E+06  4.75488  ;
 1.83383E+06 4.68621  ;
 1.83399E+06 4.6576   ;
 1.83415E+06 4.60576  ;
 1.835E+06   4.28395  ;
 1.836E+06   3.84414  ;
 1.837E+06   3.45388  ;
 1.838E+06   3.14195  ;
 1.839E+06   2.90078  ;
 1.84E+06    2.715    ;
 1.841E+06   2.57064  ;
 1.842E+06   2.457    ;
 1.843E+06   2.36628  ;
 1.844E+06   2.29285  ;
 1.845E+06   2.23268  ;
 1.846E+06   2.18282  ;
 1.8475E+06  2.12335  ;
 1.849E+06   2.07613  ;
 1.851E+06   2.02881  ;
 1.853E+06   1.99388  ;
 1.856E+06   1.95799  ;
 1.859E+06   1.93646  ;
 1.862E+06   1.92599  ;
 1.864E+06   1.92432  ;
 1.867E+06   1.92979  ;
 1.87E+06    1.94358  ;
 1.873E+06   1.96853  ;
 1.876E+06   2.00422  ;
 1.878E+06   2.03624  ;
 1.88E+06    2.0757   ;
 1.882E+06   2.12379  ;
 1.884E+06   2.18189  ;
 1.886E+06   2.25147  ;
 1.888E+06   2.33392  ;
 1.89E+06    2.43021  ;
 1.892E+06   2.54037  ;
 1.894E+06   2.66258  ;
 1.898E+06   2.92064  ;
 1.9E+06     3.03565  ;
 1.902E+06   3.12263  ;
 1.904E+06   3.16867  ;
 1.906E+06   3.16684  ;
 1.908E+06   3.11884  ;
 1.91E+06    3.03398  ;
 1.912E+06   2.92539  ;
 1.917E+06   2.62845  ;
 1.919E+06   2.51871  ;
 1.92E+06    2.46636  ;
 1.922E+06   2.37207  ;
 1.924E+06   2.28856  ;
 1.926E+06   2.21514  ;
 1.928E+06   2.1508   ;
 1.93E+06    2.09446  ;
 1.933E+06   2.02322  ;
 1.936E+06   1.96325  ;
 1.94E+06    1.89906  ;
 1.945E+06   1.83677  ;
 1.95E+06    1.78808  ;
 1.955E+06   1.74946  ;
 1.96E+06    1.71794  ;
 1.965E+06   1.69166  ;
 1.975E+06   1.6499   ;
 1.985E+06   1.61761  ;
 2E+06       1.57963  ;
 2.02E+06    1.53978  ;
 2.05439E+06 1.48472  ;
 2.12E+06    1.38649  ;
 2.15E+06    1.33468  ;
 2.16E+06    1.31604  ;
 2.18E+06    1.27257  ;
 2.2E+06     1.21978  ;
 2.21E+06    1.18852  ;
 2.22E+06    1.153    ;
 2.23E+06    1.11226  ;
 2.24E+06    1.06511  ;
 2.25E+06    1.01013  ;
 2.26E+06    0.945689 ;
 2.27E+06    0.87002  ;
 2.28E+06    0.7815   ;
 2.29E+06    0.679205 ;
 2.3E+06     0.563937 ;
 2.32E+06    0.315849 ;
 2.33E+06    0.206898 ;
 2.335E+06   0.163709 ;
 2.34E+06    0.131016 ;
 2.345E+06   0.110502 ;
 2.35E+06    0.103172 ;
 2.355E+06   0.109184 ;
 2.36E+06    0.127833 ;
 2.365E+06   0.15766  ;
 2.37E+06    0.196698 ;
 2.38E+06    0.293322 ;
 2.3925E+06  0.427    ;
 2.4E+06     0.506003 ;
 2.41E+06    0.602111 ;
 2.42E+06    0.685988 ;
 2.43E+06    0.757279 ;
 2.44E+06    0.816956 ;
 2.45E+06    0.866503 ;
 2.46E+06    0.907476 ;
 2.47E+06    0.941312 ;
 2.48E+06    0.969252 ;
 2.49E+06    0.992339 ;
 2.5E+06     1.01143  ;
 2.515E+06   1.03376  ;
 2.52E+06    1.04028  ;
 2.54E+06    1.05998  ;
 2.56E+06    1.07331  ;
 2.59E+06    1.08529  ;
 2.62E+06    1.09111  ;
 2.66E+06    1.09343  ;
 2.76E+06    1.09103  ;
 2.82E+06    1.09446  ;
 2.85E+06    1.10186  ;
 2.86E+06    1.10541  ;
 2.88E+06    1.12705  ;
 2.883E+06   1.1395   ;
 2.8845E+06  1.15197  ;
 2.885E+06   1.1576   ;
 2.886E+06   1.17571  ;
 2.88688E+06 1.20616  ;
 2.887E+06   1.21287  ;
 2.88725E+06 1.23611  ;
 2.88781E+06 1.29475  ;
 2.88791E+06 1.30866  ;
 2.88797E+06 1.32438  ;
 2.88802E+06 1.34577  ;
 2.8881E+06  1.38494  ;
 2.8882E+06  1.44828  ;
 2.8886E+06  1.71763  ;
 2.88868E+06 1.77477  ;
 2.88872E+06 1.82298  ;
 2.88876E+06 1.86959  ;
 2.8888E+06  1.92904  ;
 2.88884E+06 2.0042   ;
 2.88888E+06 2.0962   ;
 2.8889E+06  2.16642  ;
 2.88895E+06 2.32289  ;
 2.88901E+06 2.52292  ;
 2.88904E+06 2.5923   ;
 2.88906E+06 2.64852  ;
 2.88909E+06 2.68664  ;
 2.88911E+06 2.70063  ;
 2.88911E+06 2.70219  ;
 2.88913E+06 2.69695  ;
 2.88915E+06 2.67623  ;
 2.88917E+06 2.63971  ;
 2.88919E+06 2.58783  ;
 2.88921E+06 2.5216   ;
 2.88922E+06 2.4427   ;
 2.88925E+06 2.32148  ;
 2.88929E+06 2.11762  ;
 2.88934E+06 1.83775  ;
 2.88936E+06 1.70649  ;
 2.88939E+06 1.58609  ;
 2.88941E+06 1.50426  ;
 2.88942E+06 1.43023  ;
 2.88944E+06 1.36407  ;
 2.88946E+06 1.30567  ;
 2.88948E+06 1.25465  ;
 2.8895E+06  1.21057  ;
 2.88952E+06 1.17276  ;
 2.88954E+06 1.1407   ;
 2.88956E+06 1.10574  ;
 2.88959E+06 1.07838  ;
 2.88961E+06 1.05726  ;
 2.88964E+06 1.04115  ;
 2.88968E+06 1.02396  ;
 2.88972E+06 1.00941  ;
 2.8898E+06  0.99589  ;
 2.8899E+06  0.982855 ;
 2.89E+06    0.974585 ;
 2.89006E+06 0.972921 ;
 2.89019E+06 0.975399 ;
 2.892E+06   1.04587  ;
 2.894E+06   1.07143  ;
 2.896E+06   1.0832   ;
 2.9E+06     1.09511  ;
 2.905E+06   1.10318  ;
 2.955E+06   1.1505   ;
 2.975E+06   1.17561  ;
 2.99E+06    1.20101  ;
 2.995E+06   1.2126   ;
 3E+06       1.22989  ;
 3.0025E+06  1.24652  ;
 3.0035E+06  1.25848  ;
 3.004E+06   1.26628  ;
 3.00475E+06 1.28665  ;
 3.005E+06   1.29568  ;
 3.00562E+06 1.34433  ;
 3.00591E+06 1.3691   ;
 3.006E+06   1.38336  ;
 3.00609E+06 1.40495  ;
 3.00631E+06 1.4693   ;
 3.00641E+06 1.50066  ;
 3.00647E+06 1.52667  ;
 3.00652E+06 1.55688  ;
 3.00658E+06 1.59135  ;
 3.00662E+06 1.63483  ;
 3.00668E+06 1.68945  ;
 3.00671E+06 1.73944  ;
 3.00675E+06 1.79889  ;
 3.00679E+06 1.86962  ;
 3.00682E+06 1.95334  ;
 3.00686E+06 2.05125  ;
 3.0069E+06  2.16302  ;
 3.00695E+06 2.32834  ;
 3.007E+06   2.49565  ;
 3.00702E+06 2.5711   ;
 3.00705E+06 2.63493  ;
 3.00708E+06 2.68242  ;
 3.00709E+06 2.70464  ;
 3.00711E+06 2.71367  ;
 3.00713E+06 2.70841  ;
 3.00715E+06 2.68829  ;
 3.00717E+06 2.65329  ;
 3.00719E+06 2.60406  ;
 3.0072E+06  2.5639   ;
 3.00722E+06 2.46808  ;
 3.00725E+06 2.3559   ;
 3.00729E+06 2.16943  ;
 3.00734E+06 1.91726  ;
 3.00736E+06 1.80061  ;
 3.00739E+06 1.69472  ;
 3.00741E+06 1.60142  ;
 3.00743E+06 1.54016  ;
 3.00745E+06 1.48643  ;
 3.00747E+06 1.43985  ;
 3.00749E+06 1.40005  ;
 3.00751E+06 1.36386  ;
 3.00753E+06 1.32999  ;
 3.00755E+06 1.30324  ;
 3.00758E+06 1.28224  ;
 3.00761E+06 1.26096  ;
 3.00766E+06 1.23836  ;
 3.00775E+06 1.20716  ;
 3.00791E+06 1.16471  ;
 3.008E+06   1.14724  ;
 3.00807E+06 1.14104  ;
 3.00814E+06 1.13959  ;
 3.01006E+06 1.18474  ;
 3.02E+06    1.23792  ;
 3.045E+06   1.30973  ;
 3.06E+06    1.35903  ;
 3.07E+06    1.39685  ;
 3.08E+06    1.43904  ;
 3.09E+06    1.48613  ;
 3.1E+06     1.53861  ;
 3.11E+06    1.59699  ;
 3.12E+06    1.66173  ;
 3.13E+06    1.73323  ;
 3.14E+06    1.81182  ;
 3.15E+06    1.89767  ;
 3.16E+06    1.99075  ;
 3.17E+06    2.09084  ;
 3.18E+06    2.19762  ;
 3.19E+06    2.31134  ;
 3.201E+06   2.45413  ;
 3.2045E+06  2.52014  ;
 3.206E+06   2.56326  ;
 3.207E+06   2.6065   ;
 3.208E+06   2.67583  ;
 3.20875E+06 2.77023  ;
 3.209E+06   2.80683  ;
 3.20938E+06 2.89214  ;
 3.2095E+06  2.92734  ;
 3.20975E+06 3.02014  ;
 3.20994E+06 3.09971  ;
 3.21006E+06 3.16941  ;
 3.21031E+06 3.34453  ;
 3.21044E+06 3.44383  ;
 3.21053E+06 3.53678  ;
 3.21062E+06 3.64897  ;
 3.21088E+06 3.98287  ;
 3.211E+06   4.16831  ;
 3.21112E+06 4.38228  ;
 3.21138E+06 4.83445  ;
 3.21144E+06 4.9302   ;
 3.2115E+06  5.00346  ;
 3.21156E+06 5.04986  ;
 3.21162E+06 5.07377  ;
 3.21181E+06 5.09147  ;
 3.21191E+06 5.08043  ;
 3.21197E+06 5.05081  ;
 3.21203E+06 4.99328  ;
 3.21209E+06 4.90783  ;
 3.21219E+06 4.74636  ;
 3.21244E+06 4.28281  ;
 3.21256E+06 4.07754  ;
 3.21275E+06 3.80936  ;
 3.21291E+06 3.59895  ;
 3.213E+06   3.48958  ;
 3.21309E+06 3.4019   ;
 3.21331E+06 3.23934  ;
 3.21344E+06 3.15515  ;
 3.21356E+06 3.0872   ;
 3.21381E+06 2.98882  ;
 3.214E+06   2.92724  ;
 3.21419E+06 2.88842  ;
 3.21475E+06 2.79616  ;
 3.215E+06   2.7594   ;
 3.2155E+06  2.72494  ;
 3.216E+06   2.69643  ;
 3.218E+06   2.66258  ;
 3.22025E+06 2.66666  ;
 3.23E+06    2.75427  ;
 3.245E+06   2.90134  ;
 3.255E+06   2.98907  ;
 3.26E+06    3.03019  ;
 3.27E+06    3.09995  ;
 3.28E+06    3.15631  ;
 3.29E+06    3.19916  ;
 3.3E+06     3.22911  ;
 3.31E+06    3.2473   ;
 3.32E+06    3.25525  ;
 3.335E+06   3.24977  ;
 3.35E+06    3.23496  ;
 3.426E+06   3.10445  ;
 3.432E+06   3.09703  ;
 3.435E+06   3.10117  ;
 3.436E+06   3.1079   ;
 3.43788E+06 3.2411   ;
 3.438E+06   3.26632  ;
 3.4381E+06  3.30812  ;
 3.43818E+06 3.35622  ;
 3.43825E+06 3.42244  ;
 3.43832E+06 3.51292  ;
 3.43838E+06 3.59138  ;
 3.43842E+06 3.68819  ;
 3.43848E+06 3.80652  ;
 3.43852E+06 3.94943  ;
 3.43858E+06 4.11939  ;
 3.43862E+06 4.31581  ;
 3.43875E+06 4.86112  ;
 3.4388E+06  5.05861  ;
 3.43884E+06 5.18422  ;
 3.43888E+06 5.2848   ;
 3.43891E+06 5.35609  ;
 3.43895E+06 5.39426  ;
 3.43898E+06 5.39991  ;
 3.43901E+06 5.37809  ;
 3.43905E+06 5.32194  ;
 3.43909E+06 5.23692  ;
 3.43915E+06 5.05341  ;
 3.43928E+06 4.65614  ;
 3.43935E+06 4.45014  ;
 3.4394E+06  4.33358  ;
 3.43948E+06 4.1909   ;
 3.43955E+06 4.08259  ;
 3.43962E+06 4.0019   ;
 3.4397E+06  3.94331  ;
 3.4398E+06  3.89194  ;
 3.4399E+06  3.86582  ;
 3.43995E+06 3.86171  ;
 3.44006E+06 3.87376  ;
 3.44025E+06 3.93447  ;
 3.44041E+06 4.00217  ;
 3.4405E+06  4.06649  ;
 3.44059E+06 4.16053  ;
 3.44075E+06 4.3568   ;
 3.44094E+06 4.61566  ;
 3.441E+06   4.71472  ;
 3.44112E+06 4.94152  ;
 3.44131E+06 5.31014  ;
 3.44141E+06 5.46962  ;
 3.44147E+06 5.53933  ;
 3.44152E+06 5.5625   ;
 3.44153E+06 5.56428  ;
 3.44159E+06 5.54446  ;
 3.44169E+06 5.45978  ;
 3.44188E+06 5.23213  ;
 3.442E+06   5.05188  ;
 3.44212E+06 4.8294   ;
 3.44238E+06 4.33895  ;
 3.44247E+06 4.17479  ;
 3.44256E+06 4.04345  ;
 3.44262E+06 3.97311  ;
 3.44281E+06 3.79488  ;
 3.44294E+06 3.68801  ;
 3.443E+06   3.64266  ;
 3.44312E+06 3.57276  ;
 3.44338E+06 3.46746  ;
 3.4435E+06  3.42297  ;
 3.44375E+06 3.36172  ;
 3.444E+06   3.31254  ;
 3.4445E+06  3.25011  ;
 3.445E+06   3.21171  ;
 3.446E+06   3.16798  ;
 3.447E+06   3.14443  ;
 3.4495E+06  3.11689  ;
 3.46E+06    3.08808  ;
 3.48E+06    3.07595  ;
 3.5E+06     3.07546  ;
 3.59E+06    3.10968  ;
 3.6E+06     3.11131  ;
 3.6415E+06  3.09582  ;
 3.642E+06   3.09782  ;
 3.705E+06   3.02102  ;
 3.71E+06    3.01748  ;
 3.72E+06    3.02205  ;
 3.73E+06    3.05415  ;
 3.74E+06    3.15802  ;
 3.749E+06   3.4341   ;
 3.751E+06   3.54962  ;
 3.753E+06   3.70088  ;
 3.755E+06   3.89857  ;
 3.757E+06   4.15578  ;
 3.759E+06   4.48368  ;
 3.761E+06   4.88078  ;
 3.763E+06   5.3111   ;
 3.765E+06   5.6804   ;
 3.767E+06   5.85265  ;
 3.769E+06   5.74319  ;
 3.771E+06   5.40121  ;
 3.774E+06   4.74487  ;
 3.775E+06   4.53141  ;
 3.777E+06   4.16655  ;
 3.779E+06   3.87427  ;
 3.781E+06   3.64546  ;
 3.783E+06   3.46694  ;
 3.785E+06   3.32667  ;
 3.787E+06   3.21517  ;
 3.789E+06   3.12526  ;
 3.791E+06   3.05171  ;
 3.793E+06   2.99064  ;
 3.796E+06   2.91712  ;
 3.799E+06   2.85754  ;
 3.81E+06    2.71363  ;
 3.82E+06    2.63095  ;
 3.83E+06    2.56859  ;
 3.845E+06   2.49498  ;
 3.86E+06    2.43533  ;
 3.87E+06    2.39792  ;
 3.89E+06    2.33714  ;
 3.91E+06    2.2882   ;
 3.955E+06   2.20828  ;
 3.975E+06   2.17281  ;
 3.985E+06   2.14638  ;
 3.99E+06    2.13093  ;
 4E+06       2.08481  ;
 4.01E+06    2.01355  ;
 4.02E+06    1.90472  ;
 4.03E+06    1.74982  ;
 4.04E+06    1.56053  ;
 4.05E+06    1.37963  ;
 4.06E+06    1.25315  ;
 4.07E+06    1.18889  ;
 4.08E+06    1.16308  ;
 4.095E+06   1.14728  ;
 4.105E+06   1.14072  ;
 4.11E+06    1.13849  ;
 4.12E+06    1.14939  ;
 4.13E+06    1.19794  ;
 4.14E+06    1.31446  ;
 4.15E+06    1.51826  ;
 4.16E+06    1.77674  ;
 4.17E+06    1.99708  ;
 4.18E+06    2.10444  ;
 4.19E+06    2.10043  ;
 4.2E+06     2.02729  ;
 4.21E+06    1.92233  ;
 4.235E+06   1.63386  ;
 4.24E+06    1.57753  ;
 4.25E+06    1.4723   ;
 4.26E+06    1.38177  ;
 4.27E+06    1.32404  ;
 4.275E+06   1.3199   ;
 4.28E+06    1.34471  ;
 4.285E+06   1.41268  ;
 4.29E+06    1.54074  ;
 4.295E+06   1.74115  ;
 4.3E+06     2.00739  ;
 4.305E+06   2.30383  ;
 4.31E+06    2.57747  ;
 4.315E+06   2.78548  ;
 4.32E+06    2.911    ;
 4.325E+06   2.95965  ;
 4.33E+06    2.94879  ;
 4.335E+06   2.89825  ;
 4.34E+06    2.82491  ;
 4.355E+06   2.57176  ;
 4.36E+06    2.48924  ;
 4.37E+06    2.34473  ;
 4.38E+06    2.22229  ;
 4.39E+06    2.11938  ;
 4.4E+06     2.03296  ;
 4.41E+06    1.96068  ;
 4.42E+06    1.90126  ;
 4.43E+06    1.85487  ;
 4.4375E+06  1.83039  ;
 4.451E+06   1.80306  ;
 4.453E+06   1.79388  ;
 4.455E+06   1.77545  ;
 4.456E+06   1.76007  ;
 4.457E+06   1.73831  ;
 4.458E+06   1.70822  ;
 4.459E+06   1.66778  ;
 4.46E+06    1.61554  ;
 4.461E+06   1.55164  ;
 4.463E+06   1.40426  ;
 4.464E+06   1.33495  ;
 4.465E+06   1.27837  ;
 4.466E+06   1.23854  ;
 4.467E+06   1.21545  ;
 4.468E+06   1.20629  ;
 4.469E+06   1.20722  ;
 4.47E+06    1.21466  ;
 4.476E+06   1.28617  ;
 4.479E+06   1.31193  ;
 4.482E+06   1.32907  ;
 4.486E+06   1.34189  ;
 4.49E+06    1.34667  ;
 4.495E+06   1.34497  ;
 4.5E+06     1.33727  ;
 4.5075E+06  1.31758  ;
 4.5155E+06  1.29739  ;
 4.516E+06   1.29732  ;
 4.5175E+06  1.30115  ;
 4.5185E+06  1.30829  ;
 4.519E+06   1.31349  ;
 4.52E+06    1.33162  ;
 4.521E+06   1.36397  ;
 4.52175E+06 1.40501  ;
 4.522E+06   1.4211   ;
 4.52275E+06 1.49375  ;
 4.523E+06   1.52221  ;
 4.52325E+06 1.56253  ;
 4.52388E+06 1.67331  ;
 4.52406E+06 1.71537  ;
 4.5245E+06  1.84186  ;
 4.52488E+06 1.95376  ;
 4.525E+06   1.99538  ;
 4.52525E+06 2.09388  ;
 4.526E+06   2.40392  ;
 4.52681E+06 2.70171  ;
 4.52694E+06 2.74111  ;
 4.52706E+06 2.76735  ;
 4.52725E+06 2.78458  ;
 4.52788E+06 2.81695  ;
 4.528E+06   2.81376  ;
 4.52819E+06 2.78684  ;
 4.529E+06   2.61768  ;
 4.53E+06    2.36329  ;
 4.53075E+06 2.19977  ;
 4.531E+06   2.14852  ;
 4.53175E+06 2.02546  ;
 4.532E+06   1.98732  ;
 4.533E+06   1.86889  ;
 4.534E+06   1.78086  ;
 4.535E+06   1.71401  ;
 4.536E+06   1.66201  ;
 4.537E+06   1.62064  ;
 4.538E+06   1.58704  ;
 4.5395E+06  1.54735  ;
 4.541E+06   1.51708  ;
 4.542E+06   1.4987   ;
 4.544E+06   1.4702   ;
 4.547E+06   1.43775  ;
 4.55E+06    1.41304  ;
 4.555E+06   1.38188  ;
 4.56E+06    1.35805  ;
 4.565E+06   1.33865  ;
 4.575E+06   1.30846  ;
 4.58E+06    1.29763  ;
 4.585E+06   1.29301  ;
 4.58725E+06 1.29682  ;
 4.5885E+06  1.30349  ;
 4.5895E+06  1.31375  ;
 4.59E+06    1.32096  ;
 4.591E+06   1.34724  ;
 4.59188E+06 1.39504  ;
 4.59206E+06 1.41269  ;
 4.5925E+06  1.47642  ;
 4.59288E+06 1.53424  ;
 4.593E+06   1.55871  ;
 4.59315E+06 1.59952  ;
 4.5933E+06  1.65392  ;
 4.5934E+06  1.6981   ;
 4.5935E+06  1.74987  ;
 4.5936E+06  1.81083  ;
 4.5937E+06  1.88297  ;
 4.5938E+06  1.96873  ;
 4.59388E+06 2.04369  ;
 4.59395E+06 2.12921  ;
 4.59402E+06 2.22671  ;
 4.5941E+06  2.33747  ;
 4.59418E+06 2.46255  ;
 4.59425E+06 2.60231  ;
 4.5943E+06  2.70335  ;
 4.5944E+06  2.92131  ;
 4.59455E+06 3.26401  ;
 4.59462E+06 3.42306  ;
 4.59468E+06 3.51637  ;
 4.59472E+06 3.59494  ;
 4.59478E+06 3.65512  ;
 4.59482E+06 3.69384  ;
 4.59488E+06 3.709    ;
 4.59492E+06 3.69966  ;
 4.59498E+06 3.6662   ;
 4.59502E+06 3.61027  ;
 4.59508E+06 3.53457  ;
 4.59515E+06 3.39171  ;
 4.59525E+06 3.16715  ;
 4.5954E+06  2.81466  ;
 4.59548E+06 2.64962  ;
 4.59555E+06 2.49817  ;
 4.59562E+06 2.36193  ;
 4.5957E+06  2.24106  ;
 4.59578E+06 2.1347   ;
 4.59585E+06 2.04163  ;
 4.59592E+06 1.96035  ;
 4.596E+06   1.88941  ;
 4.5961E+06  1.80854  ;
 4.5962E+06  1.74076  ;
 4.5963E+06  1.68368  ;
 4.5964E+06  1.63534  ;
 4.59655E+06 1.57585  ;
 4.5967E+06  1.5286   ;
 4.59685E+06 1.49099  ;
 4.597E+06   1.46203  ;
 4.59719E+06 1.43655  ;
 4.59788E+06 1.36065  ;
 4.598E+06   1.3498   ;
 4.59825E+06 1.33783  ;
 4.6E+06     1.28091  ;
 4.602E+06   1.2585   ;
 4.604E+06   1.24777  ;
 4.608E+06   1.23699  ;
 4.613E+06   1.23228  ;
 4.614E+06   1.23221  ;
 4.6185E+06  1.23939  ;
 4.62E+06    1.24525  ;
 4.622E+06   1.25907  ;
 4.624E+06   1.28372  ;
 4.626E+06   1.32816  ;
 4.627E+06   1.3624   ;
 4.6275E+06  1.38373  ;
 4.6285E+06  1.43494  ;
 4.63E+06    1.52104  ;
 4.6305E+06  1.54301  ;
 4.63106E+06 1.55542  ;
 4.63112E+06 1.55563  ;
 4.6315E+06  1.55339  ;
 4.632E+06   1.53723  ;
 4.6325E+06  1.50826  ;
 4.633E+06   1.47067  ;
 4.63425E+06 1.36914  ;
 4.635E+06   1.3172   ;
 4.63575E+06 1.27598  ;
 4.6365E+06  1.24389  ;
 4.637E+06   1.22697  ;
 4.638E+06   1.20089  ;
 4.64E+06    1.16836  ;
 4.645E+06   1.13298  ;
 4.65E+06    1.11639  ;
 4.66E+06    1.09394  ;
 4.72E+06    0.979836 ;
 4.74E+06    0.944815 ;
 4.75E+06    0.929853 ;
 4.76E+06    0.918733 ;
 4.77E+06    0.914891 ;
 4.775E+06   0.917593 ;
 4.78E+06    0.925046 ;
 4.785E+06   0.939105 ;
 4.79E+06    0.962366 ;
 4.795E+06   0.998362 ;
 4.8E+06     1.05169  ;
 4.805E+06   1.12778  ;
 4.81E+06    1.23178  ;
 4.815E+06   1.36568  ;
 4.82125E+06 1.56395  ;
 4.825E+06   1.6857   ;
 4.83E+06    1.82274  ;
 4.835E+06   1.90647  ;
 4.84E+06    1.92649  ;
 4.845E+06   1.89275  ;
 4.85E+06    1.82511  ;
 4.8625E+06  1.61564  ;
 4.865E+06   1.57486  ;
 4.87E+06    1.50009  ;
 4.875E+06   1.43295  ;
 4.88E+06    1.3731   ;
 4.885E+06   1.31977  ;
 4.89E+06    1.2721   ;
 4.895E+06   1.22926  ;
 4.9025E+06  1.17279  ;
 4.91E+06    1.12271  ;
 4.92E+06    1.06475  ;
 4.93E+06    1.01385  ;
 4.94E+06    0.968203 ;
 4.95E+06    0.926724 ;
 4.96E+06    0.888946 ;
 4.97E+06    0.855076 ;
 4.98E+06    0.826158 ;
 4.99E+06    0.804384 ;
 5E+06       0.793532 ;
 5.01E+06    0.799396 ;
 5.02E+06    0.829716 ;
 5.03E+06    0.892604 ;
 5.04E+06    0.99236  ;
 5.05E+06    1.12368  ;
 5.0625E+06  1.30525  ;
 5.07E+06    1.41124  ;
 5.085E+06   1.60594  ;
 5.09E+06    1.67237  ;
 5.1E+06     1.86778  ;
 5.103E+06   1.95804  ;
 5.105E+06   2.03244  ;
 5.107E+06   2.12138  ;
 5.109E+06   2.22796  ;
 5.111E+06   2.35529  ;
 5.113E+06   2.50573  ;
 5.115E+06   2.67917  ;
 5.119E+06   3.06426  ;
 5.121E+06   3.23595  ;
 5.123E+06   3.35142  ;
 5.125E+06   3.38065  ;
 5.127E+06   3.31343  ;
 5.129E+06   3.16585  ;
 5.131E+06   2.97075  ;
 5.133E+06   2.7614   ;
 5.135E+06   2.5612   ;
 5.137E+06   2.38219  ;
 5.139E+06   2.22811  ;
 5.141E+06   2.09812  ;
 5.143E+06   1.9894   ;
 5.145E+06   1.89859  ;
 5.147E+06   1.82258  ;
 5.15E+06    1.73055  ;
 5.16E+06    1.53881  ;
 5.17E+06    1.43502  ;
 5.18E+06    1.36875  ;
 5.19E+06    1.32096  ;
 5.2E+06     1.28348  ;
 5.21E+06    1.25237  ;
 5.225E+06   1.21338  ;
 5.23E+06    1.20127  ;
 5.24E+06    1.17042  ;
 5.25E+06    1.16264  ;
 5.27E+06    1.12671  ;
 5.302E+06   1.07647  ;
 5.3035E+06  1.07878  ;
 5.30425E+06 1.0836   ;
 5.30475E+06 1.0897   ;
 5.305E+06   1.09444  ;
 5.30562E+06 1.12135  ;
 5.30588E+06 1.13543  ;
 5.30597E+06 1.14564  ;
 5.30606E+06 1.16155  ;
 5.30619E+06 1.19057  ;
 5.30675E+06 1.34352  ;
 5.30688E+06 1.38327  ;
 5.30694E+06 1.40853  ;
 5.307E+06   1.43962  ;
 5.30706E+06 1.47724  ;
 5.30712E+06 1.5207   ;
 5.30725E+06 1.61837  ;
 5.30775E+06 2.02882  ;
 5.30784E+06 2.09622  ;
 5.30791E+06 2.12965  ;
 5.30795E+06 2.14469  ;
 5.308E+06   2.14902  ;
 5.30805E+06 2.14192  ;
 5.30809E+06 2.1241   ;
 5.30816E+06 2.08698  ;
 5.30825E+06 2.01406  ;
 5.30878E+06 1.54747  ;
 5.30888E+06 1.47098  ;
 5.30894E+06 1.42625  ;
 5.309E+06   1.38906  ;
 5.30906E+06 1.36028  ;
 5.30912E+06 1.33904  ;
 5.30922E+06 1.31656  ;
 5.30975E+06 1.22483  ;
 5.30994E+06 1.19601  ;
 5.31006E+06 1.18223  ;
 5.31025E+06 1.16972  ;
 5.311E+06   1.13289  ;
 5.312E+06   1.1092   ;
 5.313E+06   1.09612  ;
 5.314E+06   1.08772  ;
 5.316E+06   1.07701  ;
 5.32E+06    1.06429  ;
 5.34E+06    1.02282  ;
 5.35E+06    0.995614 ;
 5.355E+06   0.975479 ;
 5.3615E+06  0.940291 ;
 5.36262E+06 0.938049 ;
 5.36275E+06 0.938028 ;
 5.363E+06   0.938452 ;
 5.36394E+06 0.94719  ;
 5.36431E+06 0.955152 ;
 5.36462E+06 0.965283 ;
 5.365E+06   0.982756 ;
 5.36538E+06 1.00903  ;
 5.3655E+06  1.02002  ;
 5.36575E+06 1.0477   ;
 5.36594E+06 1.07196  ;
 5.36612E+06 1.10246  ;
 5.36638E+06 1.15098  ;
 5.36656E+06 1.19501  ;
 5.36681E+06 1.26648  ;
 5.367E+06   1.32698  ;
 5.36719E+06 1.39773  ;
 5.3675E+06  1.5264   ;
 5.36788E+06 1.69253  ;
 5.368E+06   1.74485  ;
 5.36825E+06 1.83658  ;
 5.36844E+06 1.8958   ;
 5.36856E+06 1.92455  ;
 5.36875E+06 1.95144  ;
 5.36894E+06 1.96772  ;
 5.369E+06   1.96948  ;
 5.36912E+06 1.96591  ;
 5.36938E+06 1.94314  ;
 5.3695E+06  1.92706  ;
 5.36975E+06 1.88288  ;
 5.3705E+06  1.72811  ;
 5.371E+06   1.63248  ;
 5.3715E+06  1.55167  ;
 5.372E+06   1.48528  ;
 5.3725E+06  1.43106  ;
 5.373E+06   1.38662  ;
 5.3735E+06  1.34989  ;
 5.37425E+06 1.30588  ;
 5.37475E+06 1.28205  ;
 5.375E+06   1.27213  ;
 5.38E+06    1.15721  ;
 5.385E+06   1.11216  ;
 5.39E+06    1.08798  ;
 5.395E+06   1.07251  ;
 5.4E+06     1.06156  ;
 5.41E+06    1.04675  ;
 5.42E+06    1.0372   ;
 5.435E+06   1.02891  ;
 5.45E+06    1.02524  ;
 5.465E+06   1.02695  ;
 5.48E+06    1.03345  ;
 5.49E+06    1.0415   ;
 5.5E+06     1.05294  ;
 5.51E+06    1.06844  ;
 5.52E+06    1.08881  ;
 5.53E+06    1.1151   ;
 5.54E+06    1.14857  ;
 5.55E+06    1.19075  ;
 5.56E+06    1.24339  ;
 5.57E+06    1.3084   ;
 5.58E+06    1.38756  ;
 5.59E+06    1.48194  ;
 5.602E+06   1.61373  ;
 5.616E+06   1.77725  ;
 5.622E+06   1.83854  ;
 5.626E+06   1.87105  ;
 5.63E+06    1.89358  ;
 5.634E+06   1.90362  ;
 5.638E+06   1.89972  ;
 5.642E+06   1.88252  ;
 5.654E+06   1.79324  ;
 5.659E+06   1.76717  ;
 5.662E+06   1.76162  ;
 5.664E+06   1.765    ;
 5.666E+06   1.77667  ;
 5.668E+06   1.80181  ;
 5.67E+06    1.85236  ;
 5.67175E+06 1.94315  ;
 5.672E+06   1.96023  ;
 5.6725E+06  2.02022  ;
 5.67388E+06 2.19866  ;
 5.67406E+06 2.23689  ;
 5.67438E+06 2.32891  ;
 5.67581E+06 2.7737   ;
 5.67594E+06 2.80343  ;
 5.67606E+06 2.8176   ;
 5.67612E+06 2.81839  ;
 5.6765E+06  2.79193  ;
 5.67781E+06 2.68021  ;
 5.67794E+06 2.66295  ;
 5.67806E+06 2.63418  ;
 5.67825E+06 2.57135  ;
 5.67981E+06 1.98519  ;
 5.67994E+06 1.9443   ;
 5.68006E+06 1.91388  ;
 5.68025E+06 1.88614  ;
 5.68188E+06 1.70718  ;
 5.68212E+06 1.68908  ;
 5.684E+06   1.62482  ;
 5.686E+06   1.59653  ;
 5.688E+06   1.58241  ;
 5.692E+06   1.56689  ;
 5.705E+06   1.52681  ;
 5.71E+06    1.50993  ;
 5.75E+06    1.34501  ;
 5.77E+06    1.26926  ;
 5.785E+06   1.21995  ;
 5.8E+06     1.17633  ;
 5.815E+06   1.13974  ;
 5.83E+06    1.10915  ;
 5.84E+06    1.0934   ;
 5.85E+06    1.08236  ;
 5.86E+06    1.0782   ;
 5.865E+06   1.08     ;
 5.87E+06    1.08563  ;
 5.875E+06   1.09661  ;
 5.88E+06    1.1154   ;
 5.885E+06   1.14597  ;
 5.89E+06    1.19504  ;
 5.895E+06   1.27417  ;
 5.9E+06     1.40316  ;
 5.905E+06   1.61205  ;
 5.91E+06    1.92323  ;
 5.915E+06   2.25758  ;
 5.917E+06   2.33695  ;
 5.919E+06   2.35362  ;
 5.92088E+06 2.30716  ;
 5.92125E+06 2.28907  ;
 5.925E+06   2.05882  ;
 5.93E+06    1.7015   ;
 5.935E+06   1.42964  ;
 5.94E+06    1.2474   ;
 5.945E+06   1.12439  ;
 5.95E+06    1.03682  ;
 5.955E+06   0.96996  ;
 5.96E+06    0.914904 ;
 5.966E+06   0.856665 ;
 5.977E+06   0.757915 ;
 5.979E+06   0.742754 ;
 5.98E+06    0.735915 ;
 5.982E+06   0.727062 ;
 5.984E+06   0.72814  ;
 5.986E+06   0.748245 ;
 5.98775E+06 0.794855 ;
 5.988E+06   0.803182 ;
 5.989E+06   0.857691 ;
 5.98988E+06 0.907315 ;
 5.99012E+06 0.926178 ;
 5.9915E+06  1.056    ;
 5.992E+06   1.10494  ;
 5.993E+06   1.22629  ;
 5.994E+06   1.34833  ;
 5.99575E+06 1.53705  ;
 5.996E+06   1.56093  ;
 5.997E+06   1.61542  ;
 5.998E+06   1.66387  ;
 5.99825E+06 1.66618  ;
 6E+06       1.66101  ;
 6.002E+06   1.60205  ;
 6.006E+06   1.45302  ;
 6.008E+06   1.38794  ;
 6.01E+06    1.33219  ;
 6.012E+06   1.28483  ;
 6.014E+06   1.24451  ;
 6.016E+06   1.20995  ;
 6.018E+06   1.18006  ;
 6.021E+06   1.14242  ;
 6.024E+06   1.1116   ;
 6.026E+06   1.09237  ;
 6.03E+06    1.06084  ;
 6.034E+06   1.03448  ;
 6.04E+06    1.00191  ;
 6.046E+06   0.975659 ;
 6.052E+06   0.955337 ;
 6.057E+06   0.945175 ;
 6.058E+06   0.94414  ;
 6.06E+06    0.944458 ;
 6.062E+06   0.948735 ;
 6.064E+06   0.959739 ;
 6.066E+06   0.983194 ;
 6.0675E+06  1.01863  ;
 6.068E+06   1.03231  ;
 6.069E+06   1.08412  ;
 6.07E+06    1.13956  ;
 6.07038E+06 1.17151  ;
 6.07075E+06 1.21081  ;
 6.07112E+06 1.2575   ;
 6.0715E+06  1.31339  ;
 6.07188E+06 1.38109  ;
 6.07212E+06 1.43365  ;
 6.07238E+06 1.49278  ;
 6.07262E+06 1.55953  ;
 6.07288E+06 1.63412  ;
 6.07312E+06 1.71696  ;
 6.0735E+06  1.85556  ;
 6.07438E+06 2.21409  ;
 6.0745E+06  2.26146  ;
 6.07475E+06 2.34363  ;
 6.07494E+06 2.39548  ;
 6.07512E+06 2.42944  ;
 6.07538E+06 2.45166  ;
 6.07544E+06 2.45338  ;
 6.07556E+06 2.44891  ;
 6.07575E+06 2.42515  ;
 6.07594E+06 2.39015  ;
 6.07612E+06 2.33978  ;
 6.07638E+06 2.25518  ;
 6.07662E+06 2.16057  ;
 6.07725E+06 1.90858  ;
 6.0775E+06  1.81313  ;
 6.07788E+06 1.68461  ;
 6.07812E+06 1.60847  ;
 6.07838E+06 1.54027  ;
 6.07862E+06 1.47935  ;
 6.079E+06   1.40055  ;
 6.07938E+06 1.33547  ;
 6.07962E+06 1.2981   ;
 6.08E+06    1.25005  ;
 6.08038E+06 1.21043  ;
 6.08075E+06 1.17747  ;
 6.081E+06   1.15843  ;
 6.0815E+06  1.12719  ;
 6.082E+06   1.10376  ;
 6.0835E+06  1.06691  ;
 6.084E+06   1.05646  ;
 6.08425E+06 1.05544  ;
 6.086E+06   1.05848  ;
 6.088E+06   1.0913   ;
 6.091E+06   1.16266  ;
 6.092E+06   1.18524  ;
 6.094E+06   1.21329  ;
 6.096E+06   1.2187   ;
 6.098E+06   1.20616  ;
 6.1E+06     1.18354  ;
 6.105E+06   1.11854  ;
 6.108E+06   1.08423  ;
 6.11E+06    1.06464  ;
 6.114E+06   1.03208  ;
 6.118E+06   1.00661  ;
 6.122E+06   0.986447 ;
 6.128E+06   0.963229 ;
 6.135E+06   0.943362 ;
 6.14E+06    0.932411 ;
 6.15E+06    0.91578  ;
 6.165E+06   0.89857  ;
 6.19E+06    0.879095 ;
 6.22E+06    0.862657 ;
 6.245E+06   0.854866 ;
 6.255E+06   0.853843 ;
 6.2725E+06  0.856119 ;
 6.29E+06    0.862988 ;
 6.305E+06   0.873874 ;
 6.3175E+06  0.8882   ;
 6.325E+06   0.901255 ;
 6.3325E+06  0.920798 ;
 6.3375E+06  0.9373   ;
 6.3425E+06  0.957438 ;
 6.345E+06   0.968514 ;
 6.35E+06    0.99494  ;
 6.355E+06   1.02704  ;
 6.36E+06    1.06533  ;
 6.364E+06   1.10093  ;
 6.368E+06   1.14294  ;
 6.374E+06   1.21444  ;
 6.383E+06   1.32826  ;
 6.3855E+06  1.3538   ;
 6.387E+06   1.36772  ;
 6.39E+06    1.38804  ;
 6.392E+06   1.39692  ;
 6.394E+06   1.39992  ;
 6.396E+06   1.39547  ;
 6.398E+06   1.3824   ;
 6.4E+06     1.36098  ;
 6.402E+06   1.33154  ;
 6.404E+06   1.29472  ;
 6.406E+06   1.25164  ;
 6.41E+06    1.15389  ;
 6.415E+06   1.02718  ;
 6.418E+06   0.956431 ;
 6.42E+06    0.913103 ;
 6.422E+06   0.872853 ;
 6.425E+06   0.818328 ;
 6.43E+06    0.744698 ;
 6.435E+06   0.690591 ;
 6.44E+06    0.651538 ;
 6.445E+06   0.622095 ;
 6.45E+06    0.600695 ;
 6.455E+06   0.585642 ;
 6.46E+06    0.5747   ;
 6.465E+06   0.566815 ;
 6.475E+06   0.554541 ;
 6.48E+06    0.54691  ;
 6.485E+06   0.541592 ;
 6.495E+06   0.534077 ;
 6.51E+06    0.518812 ;
 6.52E+06    0.510118 ;
 6.53E+06    0.503293 ;
 6.54E+06    0.502788 ;
 6.55E+06    0.5117   ;
 6.56E+06    0.533714 ;
 6.57E+06    0.570188 ;
 6.58E+06    0.611697 ;
 6.59E+06    0.647868 ;
 6.6E+06     0.690999 ;
 6.61E+06    0.730328 ;
 6.62E+06    0.760426 ;
 6.63E+06    0.781983 ;
 6.65E+06    0.811266 ;
 6.657E+06   0.83542  ;
 6.665E+06   0.871705 ;
 6.667E+06   0.881328 ;
 6.6695E+06  0.888488 ;
 6.67E+06    0.888961 ;
 6.6715E+06  0.887085 ;
 6.673E+06   0.880525 ;
 6.674E+06   0.875179 ;
 6.678E+06   0.84752  ;
 6.681E+06   0.832217 ;
 6.684E+06   0.822966 ;
 6.688E+06   0.816465 ;
 6.6975E+06  0.811011 ;
 6.71E+06    0.804534 ;
 6.72E+06    0.807618 ;
 6.735E+06   0.818976 ;
 6.75E+06    0.834531 ;
 6.76E+06    0.850404 ;
 6.77E+06    0.874439 ;
 6.78E+06    0.913662 ;
 6.79E+06    0.981025 ;
 6.8E+06     1.09869  ;
 6.81E+06    1.27905  ;
 6.82E+06    1.34163  ;
 6.82375E+06 1.24879  ;
 6.83E+06    1.09108  ;
 6.84E+06    0.860264 ;
 6.85E+06    0.762559 ;
 6.86E+06    0.716895 ;
 6.87E+06    0.689275 ;
 6.88E+06    0.668075 ;
 6.89E+06    0.657795 ;
 6.9E+06     0.6554   ;
 6.91E+06    0.655045 ;
 6.93E+06    0.659701 ;
 6.95E+06    0.658115 ;
 6.96E+06    0.659923 ;
 6.97E+06    0.66518  ;
 6.98E+06    0.674324 ;
 6.99E+06    0.685707 ;
 7E+06       0.699198 ;
 7.01E+06    0.716285 ;
 7.03E+06    0.745808 ;
 7.04E+06    0.764498 ;
 7.05E+06    0.779182 ;
 7.06E+06    0.787082 ;
 7.07E+06    0.777817 ;
 7.08E+06    0.762135 ;
 7.1E+06     0.735193 ;
 7.1125E+06  0.725013 ;
 7.12E+06    0.722103 ;
 7.125E+06   0.717921 ;
 7.14E+06    0.672703 ;
 7.145E+06   0.660935 ;
 7.155E+06   0.643193 ;
 7.16E+06    0.640761 ;
 7.165E+06   0.648166 ;
 7.17E+06    0.667765 ;
 7.175E+06   0.702509 ;
 7.18E+06    0.764973 ;
 7.185E+06   0.854346 ;
 7.19E+06    0.959747 ;
 7.195E+06   1.0873   ;
 7.2E+06     1.18376  ;
 7.205E+06   1.17633  ;
 7.21E+06    1.13095  ;
 7.22E+06    1.0336   ;
 7.23E+06    0.957547 ;
 7.235E+06   0.922289 ;
 7.24E+06    0.890743 ;
 7.245E+06   0.865229 ;
 7.25E+06    0.847775 ;
 7.26E+06    0.844272 ;
 7.27E+06    0.852586 ;
 7.28E+06    0.852106 ;
 7.29E+06    0.84778  ;
 7.3E+06     0.854144 ;
 7.31E+06    0.83413  ;
 7.32E+06    0.909459 ;
 7.33E+06    0.947401 ;
 7.34E+06    0.918523 ;
 7.35E+06    0.882907 ;
 7.36E+06    0.839948 ;
 7.3675E+06  0.759254 ;
 7.37E+06    0.733648 ;
 7.375E+06   0.794779 ;
 7.38E+06    0.856468 ;
 7.41E+06    0.8085   ;
 7.45E+06    0.760215 ;
 7.47E+06    0.740549 ;
 7.49E+06    0.725487 ;
 7.5E+06     0.721978 ;
 7.515E+06   0.742786 ;
 7.52E+06    0.748991 ;
 7.54E+06    0.754744 ;
 7.55E+06    0.75472  ;
 7.56E+06    0.754896 ;
 7.57E+06    0.748513 ;
 7.58E+06    0.738626 ;
 7.59E+06    0.732863 ;
 7.6E+06     0.732223 ;
 7.61E+06    0.740146 ;
 7.72E+06    0.880675 ;
 7.73E+06    0.890789 ;
 7.75E+06    0.904886 ;
 7.77E+06    0.914042 ;
 7.8E+06     0.917982 ;
 7.82E+06    0.925873 ;
 7.83E+06    0.933186 ;
 7.85E+06    0.954241 ;
 7.86E+06    0.960882 ;
 7.87E+06    0.955178 ;
 7.88E+06    0.930018 ;
 7.89E+06    0.892354 ;
 7.9E+06     0.849539 ;
 7.915E+06   0.791339 ;
 7.92E+06    0.771173 ;
 7.935E+06   0.704136 ;
 7.95E+06    0.635209 ;
 7.96E+06    0.595502 ;
 7.97E+06    0.564924 ;
 7.98E+06    0.541154 ;
 7.99E+06    0.524698 ;
 8E+06       0.516192 ;
 8.01E+06    0.516362 ;
 8.02E+06    0.522528 ;
 8.03E+06    0.532371 ;
 8.04E+06    0.544882 ;
 8.05E+06    0.560917 ;
 8.06E+06    0.579514 ;
 8.1E+06     0.659675 ;
 8.135E+06   0.735304 ;
 8.15E+06    0.76382  ;
 8.16E+06    0.776737 ;
 8.17E+06    0.786797 ;
 8.19E+06    0.801941 ;
 8.225E+06   0.822755 ;
 8.24E+06    0.827998 ;
 8.25E+06    0.827162 ;
 8.26E+06    0.822777 ;
 8.27E+06    0.815578 ;
 8.29E+06    0.796302 ;
 8.31E+06    0.771704 ;
 8.32E+06    0.756234 ;
 8.37E+06    0.666415 ;
 8.38E+06    0.650726 ;
 8.39E+06    0.638561 ;
 8.4E+06     0.628763 ;
 8.45E+06    0.602082 ;
 8.505E+06   0.563141 ;
 8.51E+06    0.560172 ;
 8.53E+06    0.55452  ;
 8.54E+06    0.553162 ;
 8.5625E+06  0.555151 ;
 8.575E+06   0.559466 ;
 8.585E+06   0.56494  ;
 8.59E+06    0.568219 ;
 8.6E+06     0.577626 ;
 8.61E+06    0.590865 ;
 8.62E+06    0.606251 ;
 8.635E+06   0.632928 ;
 8.65E+06    0.662381 ;
 8.67E+06    0.708146 ;
 8.71E+06    0.808842 ;
 8.72E+06    0.830767 ;
 8.73E+06    0.848823 ;
 8.74E+06    0.862416 ;
 8.75E+06    0.871633 ;
 8.76E+06    0.875606 ;
 8.77E+06    0.874404 ;
 8.78E+06    0.86681  ;
 8.79E+06    0.853841 ;
 8.8E+06     0.837764 ;
 8.82E+06    0.801848 ;
 8.85E+06    0.754696 ;
 8.87E+06    0.723039 ;
 8.89E+06    0.68887  ;
 8.9E+06     0.671256 ;
 8.91E+06    0.656302 ;
 8.92E+06    0.6492   ;
 8.95E+06    0.654748 ;
 8.96E+06    0.679502 ;
 8.975E+06   0.681464 ;
 8.98E+06    0.681663 ;
 8.99E+06    0.689978 ;
 9E+06       0.707051 ;
 9.02E+06    0.737909 ;
 9.025E+06   0.754685 ;
 9.04E+06    0.819822 ;
 9.05E+06    0.847988 ;
 9.07969E+06 0.755249 ;
 9.1E+06     0.737837 ;
 9.125E+06   0.711951 ;
 9.14E+06    0.690108 ;
 9.18E+06    0.639108 ;
 9.2E+06     0.616628 ;
 9.225E+06   0.602218 ;
 9.248E+06   0.600418 ;
 9.274E+06   0.605258 ;
 9.3E+06     0.619276 ;
 9.325E+06   0.651341 ;
 9.35E+06    0.685658 ;
 9.375E+06   0.713536 ;
 9.4E+06     0.719958 ;
 9.42362E+06 0.696118 ;
 9.4315E+06  0.691038 ;
 9.525E+06   0.682237 ;
 9.58125E+06 0.687438 ;
 9.6E+06     0.691342 ;
 9.625E+06   0.706003 ;
 9.65E+06    0.71265  ;
 9.7E+06     0.729146 ;
 9.725E+06   0.734068 ;
 9.7625E+06  0.73165  ;
 9.775E+06   0.72959  ;
 9.8E+06     0.742756 ;
 9.825E+06   0.744078 ;
 9.8625E+06  0.719815 ;
 9.875E+06   0.711152 ;
 9.9E+06     0.706631 ;
 9.925E+06   0.707442 ;
 9.95E+06    0.713885 ;
 9.975E+06   0.730664 ;
 1E+07       0.739919 ;
 1.005E+07   0.753864 ;
 1.01E+07    0.787386 ;
 1.0122E+07  0.800096 ;
 1.015E+07   0.812396 ;
 1.019E+07   0.823466 ;
 1.0202E+07  0.825506 ;
 1.0247E+07  0.817036 ;
 1.03E+07    0.791665 ;
 1.0372E+07  0.740466 ;
 1.04E+07    0.722356 ;
 1.045E+07   0.708566 ;
 1.0465E+07  0.708046 ;
 1.0528E+07  0.710316 ;
 1.055E+07   0.709166 ;
 1.0563E+07  0.705966 ;
 1.06E+07    0.690626 ;
 1.0667E+07  0.686516 ;
 1.068E+07   0.687816 ;
 1.069E+07   0.692486 ;
 1.07E+07    0.703366 ;
 1.071E+07   0.705736 ;
 1.072E+07   0.679785 ;
 1.073E+07   0.623685 ;
 1.075E+07   0.672896 ;
 1.076E+07   0.693336 ;
 1.077E+07   0.712027 ;
 1.078E+07   0.728576 ;
 1.082E+07   0.784956 ;
 1.083E+07   0.797856 ;
 1.084E+07   0.806346 ;
 1.085E+07   0.810816 ;
 1.086E+07   0.810746 ;
 1.087E+07   0.808406 ;
 1.088E+07   0.807696 ;
 1.09E+07    0.813166 ;
 1.092E+07   0.823046 ;
 1.093E+07   0.836127 ;
 1.094E+07   0.866424 ;
 1.095E+07   0.907605 ;
 1.096E+07   0.952256 ;
 1.097E+07   0.980066 ;
 1.099E+07   0.983516 ;
 1.1E+07     0.987556 ;
 1.1009E+07  0.996366 ;
 1.105E+07   1.0447   ;
 1.11E+07    1.1072   ;
 1.115E+07   1.1462   ;
 1.12E+07    1.1014   ;
 1.125E+07   1.0338   ;
 1.13E+07    0.977336 ;
 1.135E+07   0.930146 ;
 1.14E+07    0.899446 ;
 1.145E+07   0.909696 ;
 1.15E+07    0.940176 ;
 1.152E+07   0.954836 ;
 1.16E+07    1.0005   ;
 1.1643E+07  1.006    ;
 1.17E+07    1.0017   ;
 1.175E+07   1.0061   ;
 1.1779E+07  1.0596   ;
 1.1797E+07  1.0729   ;
 1.18E+07    1.0737   ;
 1.185E+07   1.0654   ;
 1.19E+07    1.0423   ;
 1.195E+07   1.0431   ;
 1.197E+07   1.0502   ;
 1.2E+07     1.0368   ;
 1.205E+07   0.990596 ;
 1.211E+07   0.927023 ;
 1.2161E+07  0.87904  ;
 1.22E+07    0.867773 ;
 1.225E+07   0.885265 ;
 1.23E+07    0.889143 ;
 1.2333E+07  0.88844  ;
 1.245E+07   0.876239 ;
 1.25E+07    0.876951 ;
 1.255E+07   0.875926 ;
 1.26E+07    0.864775 ;
 1.265E+07   0.84853  ;
 1.27E+07    0.840107 ;
 1.275E+07   0.852895 ;
 1.285E+07   0.944229 ;
 1.28924E+07 0.972853 ;
 1.29E+07    0.974144 ;
 1.295E+07   0.958407 ;
 1.3E+07     0.91987  ;
 1.305E+07   0.894916 ;
 1.31E+07    0.89351  ;
 1.32E+07    0.909543 ;
 1.32247E+07 0.909037 ;
 1.325E+07   0.909219 ;
 1.33E+07    0.904319 ;
 1.34E+07    0.91332  ;
 1.345E+07   0.920169 ;
 1.35E+07    0.923498 ;
 1.355E+07   0.921324 ;
 1.362E+07   0.939047 ;
 1.365E+07   0.952388 ;
 1.373E+07   1.00386  ;
 1.374E+07   1.00828  ;
 1.375E+07   1.00726  ;
 1.376E+07   1.00111  ;
 1.377E+07   0.997874 ;
 1.3785E+07  1.00335  ;
 1.38E+07    1.01278  ;
 1.381E+07   1.01659  ;
 1.383E+07   1.01288  ;
 1.395E+07   0.97923  ;
 1.4E+07     0.956582 ;
 1.405E+07   0.935933 ;
 1.41E+07    0.944654 ;
 1.415E+07   0.955268 ;
 1.43496E+07 0.973004 ;
 1.435E+07   0.973037 ;
 1.44E+07    0.967094 ;
 1.45E+07    0.961355 ;
 1.455E+07   0.96246  ;
 1.465E+07   0.978438 ;
 1.475E+07   1.00154  ;
 1.485E+07   1.03103  ;
 1.502E+07   1.04462  ;
 1.505E+07   1.03681  ;
 1.51E+07    1.01351  ;
 1.515E+07   0.984825 ;
 1.52E+07    0.949054 ;
 1.5255E+07  0.92037  ;
 1.53921E+07 0.876434 ;
 1.54E+07    0.87594  ;
 1.55E+07    0.881992 ;
 1.555E+07   0.885731 ;
 1.56E+07    0.898089 ;
 1.57E+07    0.916749 ;
 1.575E+07   0.922604 ;
 1.58E+07    0.921001 ;
 1.585E+07   0.915693 ;
 1.59E+07    0.905107 ;
 1.595E+07   0.884647 ;
 1.6E+07     0.856786 ;
 1.61E+07    0.843817 ;
 1.6161E+07  0.859532 ;
 1.6212E+07  0.875534 ;
 1.63E+07    0.907101 ;
 1.64E+07    0.928135 ;
 1.65E+07    0.941332 ;
 1.6531E+07  0.93363  ;
 1.6615E+07  0.923392 ;
 1.66516E+07 0.923109 ;
 1.67E+07    0.927729 ;
 1.682E+07   0.950054 ;
 1.69E+07    0.973301 ;
 1.7E+07     1.00527  ;
 1.71E+07    1.04497  ;
 1.7169E+07  1.05883  ;
 1.72E+07    1.06333  ;
 1.72502E+07 1.06564  ;
 1.7435E+07  1.05995  ;
 1.7488E+07  1.06008  ;
 1.75E+07    1.06007  ;
 1.77469E+07 1.06678  ;
 1.7807E+07  1.06842  ;
 1.7845E+07  1.06844  ;
 1.8E+07     1.05854  ;
 1.81E+07    1.03393  ;
 1.82E+07    1.01822  ;
 1.83E+07    1.01572  ;
 1.85E+07    1.03404  ;
 1.86E+07    1.02625  ;
 1.87E+07    1.0378   ;
 1.88E+07    1.06145  ;
 1.89E+07    1.09783  ;
 1.9E+07     1.11185  ;
 1.91E+07    1.10344  ;
 1.92E+07    1.10752  ;
 1.93E+07    1.0991   ;
 1.9401E+07  1.07383  ;
 1.95E+07    1.0333   ;
 1.96E+07    1.00419  ;
 1.97E+07    0.991462 ;
 1.99E+07    0.995323 ;
 2.01E+07    1.00212  ;
 2.01482E+07 1.00741  ;
 2.03342E+07 1.03447  ;
 2.042E+07   1.04319  ;
 2.065E+07   1.05541  ;
 2.082E+07   1.05547  ;
 2.095E+07   1.05504  ;
 2.12456E+07 1.06322  ;
 2.125E+07   1.06334  ;
 2.15498E+07 1.05868  ;
 2.15942E+07 1.05799  ;
 2.1895E+07  1.04774  ;
 2.2044E+07  1.04516  ;
 2.215E+07   1.04125  ;
 2.245E+07   1.01635  ;
 2.25E+07    1.0136   ;
 2.28174E+07 1.00423  ;
 2.305E+07   0.997356 ;
 2.335E+07   0.995678 ;
 2.365E+07   0.999893 ;
 2.395E+07   0.989453 ;
 2.4E+07     0.989356 ;
 2.425E+07   0.994628 ;
 2.45771E+07 1.00558  ;
 2.49238E+07 1.01458  ;
 2.5E+07     1.01656  ;
 2.515E+07   1.0187   ;
 2.545E+07   1.01541  ;
 2.575E+07   1.01934  ;
 2.6E+07     1.02669  ;
 2.635E+07   1.02997  ;
 2.67218E+07 1.02831  ;
 2.7E+07     1.02707  ;
 2.73809E+07 1.02538  ;
 2.75E+07    1.02485  ;
 2.785E+07   1.02128  ;
 2.82429E+07 1.02396  ;
 2.85E+07    1.02572  ;
 2.89021E+07 1.03152  ;
 2.9E+07     1.03294  ;
 2.935E+07   1.03169  ;
 2.95E+07    1.03835  ;
 2.965E+07   1.04253  ;
 2.995E+07   1.04282  ;
 3.03725E+07 1.04002  ;
 3.07079E+07 1.03779  ;
 3.11412E+07 1.03653  ;
 3.15805E+07 1.03526  ;
 3.2E+07     1.03404  ;
 3.24515E+07 1.03086  ;
 3.29093E+07 1.02764  ;
 3.33736E+07 1.02437  ;
 3.38444E+07 1.02106  ;
 3.43219E+07 1.0177   ;
 3.43888E+07 1.01723  ;
 3.48739E+07 1.01289  ;
 3.53659E+07 1.00848  ;
 3.58649E+07 1.00401  ;
 3.63709E+07 0.999485 ;
 3.6884E+07  0.994892 ;
 3.74044E+07 0.990234 ;
 3.79321E+07 0.985511 ;
 3.84672E+07 0.98072  ;
 3.90099E+07 0.975862 ;
 3.95603E+07 0.970936 ;
 4E+07       0.967    ;
 4.05643E+07 0.960716 ;
 4.1E+07     0.955865 ;
 4.15784E+07 0.947873 ;
 4.2165E+07  0.939768 ;
 4.27599E+07 0.931549 ;
 4.3E+07     0.928231 ;
 4.36067E+07 0.918418 ;
 4.42219E+07 0.908466 ;
 4.48458E+07 0.898374 ;
 4.54784E+07 0.88814  ;
 4.61201E+07 0.877761 ;
 4.67707E+07 0.867236 ;
 4.74306E+07 0.856562 ;
 4.80997E+07 0.845738 ;
 4.87783E+07 0.834761 ;
 4.94665E+07 0.823629 ;
 5E+07       0.815    ;
 5.07054E+07 0.804664 ;
 5.14208E+07 0.794183 ;
 5.21462E+07 0.783553 ;
 5.28819E+07 0.772774 ;
 5.3E+07     0.771044 ;
 5.37477E+07 0.761048 ;
 5.4506E+07  0.750912 ;
 5.5275E+07  0.740632 ;
 5.60548E+07 0.730208 ;
 5.68457E+07 0.719636 ;
 5.7E+07     0.717573 ;
 5.78042E+07 0.707594 ;
 5.86197E+07 0.697475 ;
 5.94467E+07 0.687212 ;
 6.02854E+07 0.676805 ;
 6.1E+07     0.667938 ;
 6.18606E+07 0.658281 ;
 6.27333E+07 0.648488 ;
 6.36184E+07 0.638556 ;
 6.45159E+07 0.628485 ;
 6.5E+07     0.623053 ;
 6.5917E+07  0.61377  ;
 6.6847E+07  0.604355 ;
 6.77901E+07 0.594807 ;
 6.87465E+07 0.585125 ;
 6.9E+07     0.582559 ;
 6.99735E+07 0.573548 ;
 7.09607E+07 0.564411 ;
 7.19618E+07 0.555145 ;
 7.2977E+07  0.545748 ;
 7.3E+07     0.545535 ;
 7.40299E+07 0.536876 ;
 7.50743E+07 0.528095 ;
 7.61335E+07 0.519189 ;
 7.7E+07     0.511904 ;
 7.80863E+07 0.50361  ;
 7.9188E+07  0.495199 ;
 8E+07       0.489    ;
 8.11287E+07 0.481538 ;
 8.2E+07     0.475777 ;
 8.31569E+07 0.468808 ;
 8.43301E+07 0.46174  ;
 8.55198E+07 0.454573 ;
 8.6E+07     0.451681 ;
 8.72133E+07 0.443199 ;
 8.8E+07     0.4377   ;
 8.92415E+07 0.427333 ;
 9E+07       0.421    ;
 9.12697E+07 0.409862 ;
 9.25574E+07 0.398566 ;
 9.38632E+07 0.387111 ;
 9.4E+07     0.385911 ;
 9.53262E+07 0.375284 ;
 9.6671E+07  0.364508 ;
 9.7E+07     0.361872 ;
 9.83685E+07 0.351895 ;
 9.97563E+07 0.341777 ;
 1E+08       0.34     ;
 1.01411E+08 0.330427 ;
 1.02E+08    0.326429 ;
 1.03439E+08 0.317142 ;
 1.04E+08    0.313522 ;
 1.05467E+08 0.304645 ;
 1.06E+08    0.301421 ;
 1.07495E+08 0.29305  ;
 1.08E+08    0.290226 ;
 1.09524E+08 0.282435 ;
 1.1E+08     0.28     ;
 1.11552E+08 0.272707 ;
 1.12E+08    0.270601 ;
 1.1358E+08  0.263832 ;
 1.15183E+08 0.256968 ;
 1.16E+08    0.253466 ;
 1.17637E+08 0.247138 ;
 1.19296E+08 0.240721 ;
 1.2E+08     0.238    ;
 1.21693E+08 0.232024 ;
 1.2341E+08  0.225965 ;
 1.24E+08    0.223882 ;
 1.25749E+08 0.218254 ;
 1.27524E+08 0.212548 ;
 1.28E+08    0.211015 ;
 1.29806E+08 0.205703 ;
 1.31637E+08 0.200316 ;
 1.33494E+08 0.194853 ;
 1.35378E+08 0.189312 ;
 1.37288E+08 0.183694 ;
 1.38E+08    0.181598 ;
 1.39947E+08 0.176147 ;
 1.41921E+08 0.170619 ;
 1.43924E+08 0.165013 ;
 1.45954E+08 0.159328 ;
 1.48013E+08 0.153563 ;
 1.5E+08     0.148    ];

%16O(n,y)
On_y = [1E-05       0.00854195  ;
 1.10304E-05 0.00813321  ;
 1.21669E-05 0.00774403  ;
 1.34206E-05 0.00737347  ;
 1.48034E-05 0.00702064  ;
 1.63286E-05 0.0066847   ;
 1.80111E-05 0.00636483  ;
 1.98669E-05 0.00606027  ;
 2.19139E-05 0.00577028  ;
 2.41719E-05 0.00549416  ;
 2.66625E-05 0.00523126  ;
 2.94097E-05 0.00498094  ;
 3.244E-05   0.0047426   ;
 3.57825E-05 0.00451566  ;
 3.94694E-05 0.00429958  ;
 4.35362E-05 0.00409385  ;
 4.80221E-05 0.00389795  ;
 5.29701E-05 0.00371143  ;
 5.8428E-05  0.00353384  ;
 6.44482E-05 0.00336474  ;
 7.10888E-05 0.00320373  ;
 7.84136E-05 0.00305043  ;
 8.64931E-05 0.00290447  ;
 9.54051E-05 0.00276549  ;
 0.000105235 0.00263316  ;
 0.000116078 0.00250716  ;
 0.000128039 0.00238719  ;
 0.000141232 0.00227296  ;
 0.000155784 0.0021642   ;
 0.000171835 0.00206064  ;
 0.00018954  0.00196203  ;
 0.00020907  0.00186815  ;
 0.000230612 0.00177876  ;
 0.000254374 0.00169364  ;
 0.000280584 0.0016126   ;
 0.000309494 0.00153543  ;
 0.000341383 0.00146196  ;
 0.000376558 0.00139201  ;
 0.000415358 0.0013254   ;
 0.000458155 0.00126198  ;
 0.000505362 0.00120159  ;
 0.000557433 0.00114409  ;
 0.000614869 0.00108935  ;
 0.000678223 0.00103722  ;
 0.000748105 0.000987591 ;
 0.000825188 0.000940334 ;
 0.000910213 0.000895338 ;
 0.001004    0.000852496 ;
 0.00110745  0.000811704 ;
 0.00122155  0.000772863 ;
 0.00134742  0.000735881 ;
 0.00148625  0.000700669 ;
 0.00163939  0.000667142 ;
 0.00180831  0.000635219 ;
 0.00199463  0.000604823 ;
 0.00220016  0.000575882 ;
 0.00242685  0.000548327 ;
 0.00267691  0.000522089 ;
 0.00295273  0.000497107 ;
 0.00325697  0.000473321 ;
 0.00359256  0.000450672 ;
 0.00396272  0.000429108 ;
 0.00437103  0.000408575 ;
 0.00482141  0.000389025 ;
 0.00531819  0.00037041  ;
 0.00586616  0.000352687 ;
 0.00647059  0.000335811 ;
 0.0071373   0.000319743 ;
 0.00787271  0.000304444 ;
 0.00868389  0.000289877 ;
 0.00957865  0.000276007 ;
 0.0105656   0.000262801 ;
 0.0116543   0.000250227 ;
 0.0128551   0.000238254 ;
 0.0141796   0.000226855 ;
 0.0156406   0.000216001 ;
 0.0172522   0.000205667 ;
 0.0190298   0.000195828 ;
 0.0209906   0.000186459 ;
 0.0231534   0.00017754  ;
 0.0252419   0.000170039 ;
 0.0253      0.000169843 ;
 0.0279068   0.000161719 ;
 0.0307823   0.000153984 ;
 0.033954    0.00014662  ;
 0.0374525   0.000139608 ;
 0.0413115   0.000132933 ;
 0.0455681   0.000126578 ;
 0.0502633   0.000120529 ;
 0.0554423   0.000114771 ;
 0.0611549   0.000109289 ;
 0.0674561   0.00010407  ;
 0.0744066   9.90992E-05 ;
 0.0820732   9.43651E-05 ;
 0.0905297   8.98569E-05 ;
 0.0998577   8.55648E-05 ;
 0.110147    8.14799E-05 ;
 0.121496    7.75923E-05 ;
 0.134014    7.38919E-05 ;
 0.147823    7.03683E-05 ;
 0.163054    6.70126E-05 ;
 0.179855    6.38174E-05 ;
 0.198386    6.0774E-05  ;
 0.218827    5.78744E-05 ;
 0.241375    5.51138E-05 ;
 0.266245    5.24874E-05 ;
 0.293678    4.9985E-05  ;
 0.323938    4.76E-05    ;
 0.357316    4.5331E-05  ;
 0.394132    4.31703E-05 ;
 0.434743    4.11099E-05 ;
 0.479537    3.91472E-05 ;
 0.528947    3.72833E-05 ;
 0.587564    3.53826E-05 ;
 0.648105    3.36921E-05 ;
 0.714884    3.20871E-05 ;
 0.788543    3.05559E-05 ;
 0.869792    2.9099E-05  ;
 0.959413    2.77163E-05 ;
 1.05827     2.64169E-05 ;
 1.16731     2.51924E-05 ;
 1.28758     2.40289E-05 ;
 1.4302      2.28471E-05 ;
 1.57757     2.17869E-05 ;
 1.74011     2.07824E-05 ;
 1.93295     1.97564E-05 ;
 2.14705     1.87801E-05 ;
 2.38498     1.78498E-05 ;
 2.63072     1.7026E-05  ;
 2.94272     1.61325E-05 ;
 3.24593     1.53841E-05 ;
 3.60546     1.46269E-05 ;
 4.00501     1.39039E-05 ;
 4.44862     1.32164E-05 ;
 4.90699     1.26048E-05 ;
 5.37494     1.20651E-05 ;
 6.0124      1.14298E-05 ;
 6.6319      1.09003E-05 ;
 7.41844     1.03284E-05 ;
 8.24013     9.81665E-06 ;
 9.2174      9.30126E-06 ;
 10.0964     8.90676E-06 ;
 11.2147     8.50602E-06 ;
 12.4575     8.12284E-06 ;
 13.7411     7.78527E-06 ;
 15.1569     7.45671E-06 ;
 16.8358     7.12077E-06 ;
 18.8325     6.78202E-06 ;
 20.199      6.58132E-06 ;
 22.5945     6.31494E-06 ;
 25.2742     6.05874E-06 ;
 28.8728     5.76931E-06 ;
 32.5233     5.5206E-06  ;
 37.1541     5.25768E-06 ;
 41.2694     5.05891E-06 ;
 45.8428     4.86625E-06 ;
 50.2121     4.70695E-06 ;
 56.5634     4.57039E-06 ;
 65.5254     4.40422E-06 ;
 75.3794     4.25187E-06 ;
 89.8084     4.06997E-06 ;
 100.46      3.95886E-06 ;
 126.582     3.83728E-06 ;
 150.812     3.74824E-06 ;
 297.518     3.74151E-06 ;
 354.922     3.82905E-06 ;
 408.297     3.90764E-06 ;
 507.333     4.03816E-06 ;
 617.267     4.22662E-06 ;
 740.575     4.42432E-06 ;
 933.145     4.73727E-06 ;
 1217.73     5.18571E-06 ;
 1420.62     5.49586E-06 ;
 1740.65     5.92699E-06 ;
 2132.66     6.41813E-06 ;
 2463.25     6.83882E-06 ;
 2873.66     7.31666E-06 ;
 3480.28     7.95731E-06 ;
 4146.27     8.58887E-06 ;
 4796.63     9.15388E-06 ;
 5142.08     9.42861E-06 ;
 10070.5     1.30118E-05 ;
 15105.8     1.58859E-05 ;
 35246.9     2.45086E-05 ;
 55775.9     3.13231E-05 ;
 76594.6     3.73813E-05 ;
 99077.8     4.34121E-05 ;
 132294      5.18831E-05 ;
 162019      5.94749E-05 ;
 201411      6.97764E-05 ;
 250000      8.44609E-05 ;
 280000      9.59111E-05 ;
 300000      0.000105442 ;
 320000      0.000117543 ;
 340000      0.000133935 ;
 360000      0.000158097 ;
 370000      0.000175197 ;
 380000      0.000197701 ;
 390000      0.000228176 ;
 400000      0.000270115 ;
 405000      0.00029626  ;
 415000      0.000355155 ;
 420000      0.000379532 ;
 425000      0.000387301 ;
 429965      0.000365121 ;
 435000      0.000307689 ;
 440000      0.000229898 ;
 445000      0.000154641 ;
 450000      9.62469E-05 ;
 455000      5.66751E-05 ;
 459688      3.34729E-05 ;
 460000      3.197E-05   ;
 461622      2.82591E-05 ;
 469973      9.38025E-06 ;
 470026      9.30449E-06 ;
 471243      8.61891E-06 ;
 479974      3.77733E-06 ;
 480026      3.765E-06   ;
 480053      3.7646E-06  ;
 490000      4.63279E-06 ;
 500000      7.77031E-06 ;
 550000      2.49528E-05 ;
 600000      3.47717E-05 ;
 650000      3.90986E-05 ;
 700000      3.9649E-05  ;
 750000      3.74293E-05 ;
 817009      3.2136E-05  ;
 850000      2.95896E-05 ;
 900000      3.06218E-05 ;
 920000      3.51121E-05 ;
 940000      4.38656E-05 ;
 960000      5.77735E-05 ;
 980000      7.48787E-05 ;
 1E+06       8.188E-05   ;
 1.02E+06    7.11353E-05 ;
 1.04E+06    5.62548E-05 ;
 1.06E+06    4.55147E-05 ;
 1.08E+06    3.8803E-05  ;
 1.1E+06     3.46425E-05 ;
 1.15E+06    2.94613E-05 ;
 1.22E+06    2.59798E-05 ;
 1.23E+06    2.53896E-05 ;
 1.24E+06    2.46494E-05 ;
 1.25E+06    2.3689E-05  ;
 1.26E+06    2.23383E-05 ;
 1.27E+06    2.03171E-05 ;
 1.28E+06    1.71653E-05 ;
 1.29E+06    1.21858E-05 ;
 1.29969E+06 5.76253E-06 ;
 1.3E+06     5.56357E-06 ;
 1.30125E+06 5.1334E-06  ;
 1.30988E+06 2.22114E-06 ;
 1.30996E+06 2.20375E-06 ;
 1.30998E+06 2.2029E-06  ;
 1.31004E+06 2.21266E-06 ;
 1.31012E+06 2.24789E-06 ;
 1.32E+06    7.84247E-06 ;
 1.33E+06    1.59428E-05 ;
 1.34E+06    2.12638E-05 ;
 1.35E+06    2.41966E-05 ;
 1.36E+06    2.58282E-05 ;
 1.37E+06    2.67891E-05 ;
 1.38E+06    2.73894E-05 ;
 1.39E+06    2.77697E-05 ;
 1.4E+06     2.80397E-05 ;
 1.42E+06    2.83798E-05 ;
 1.45016E+06 2.86691E-05 ;
 1.54E+06    2.92801E-05 ;
 1.565E+06   2.958E-05   ;
 1.58E+06    2.98803E-05 ;
 1.59E+06    3.02006E-05 ;
 1.6E+06     3.07212E-05 ;
 1.61E+06    3.16529E-05 ;
 1.62E+06    3.35998E-05 ;
 1.6275E+06  3.761E-05   ;
 1.63E+06    3.90105E-05 ;
 1.63188E+06 4.39001E-05 ;
 1.63992E+06 6.51763E-05 ;
 1.64E+06    6.55319E-05 ;
 1.64012E+06 6.6476E-05  ;
 1.64194E+06 8.27465E-05 ;
 1.642E+06   8.34834E-05 ;
 1.64212E+06 8.54231E-05 ;
 1.64391E+06 0.000116446 ;
 1.644E+06   0.000118649 ;
 1.64409E+06 0.00012181  ;
 1.64588E+06 0.000192783 ;
 1.64594E+06 0.000195758 ;
 1.646E+06   0.000199813 ;
 1.64606E+06 0.000205373 ;
 1.64619E+06 0.000219054 ;
 1.64788E+06 0.000411638 ;
 1.64795E+06 0.00042237  ;
 1.648E+06   0.000430898 ;
 1.64805E+06 0.00044155  ;
 1.64812E+06 0.000462783 ;
 1.64988E+06 0.000978523 ;
 1.64995E+06 0.000997247 ;
 1.65E+06    0.00100351  ;
 1.65003E+06 0.00100488  ;
 1.65009E+06 0.00100187  ;
 1.65038E+06 0.000965413 ;
 1.65194E+06 0.000754175 ;
 1.652E+06   0.00074393  ;
 1.65212E+06 0.000718681 ;
 1.65388E+06 0.000332061 ;
 1.65395E+06 0.000316289 ;
 1.654E+06   0.000308544 ;
 1.65405E+06 0.00030253  ;
 1.65412E+06 0.000295368 ;
 1.65591E+06 0.000166253 ;
 1.65597E+06 0.000162287 ;
 1.65603E+06 0.000159151 ;
 1.65612E+06 0.000155879 ;
 1.65791E+06 0.000106185 ;
 1.658E+06   0.000103948 ;
 1.65809E+06 0.00010234  ;
 1.65994E+06 7.81865E-05 ;
 1.66004E+06 7.72927E-05 ;
 1.66023E+06 7.65098E-05 ;
 1.66992E+06 4.42802E-05 ;
 1.67005E+06 4.40664E-05 ;
 1.67009E+06 4.40584E-05 ;
 1.67994E+06 4.88409E-05 ;
 1.68008E+06 4.92027E-05 ;
 1.68191E+06 5.72028E-05 ;
 1.682E+06   5.77828E-05 ;
 1.68212E+06 5.89707E-05 ;
 1.68388E+06 7.82056E-05 ;
 1.68394E+06 7.9081E-05  ;
 1.684E+06   8.03673E-05 ;
 1.68406E+06 8.22221E-05 ;
 1.68419E+06 8.69092E-05 ;
 1.68588E+06 0.000153333 ;
 1.68594E+06 0.000156507 ;
 1.68598E+06 0.00015986  ;
 1.68603E+06 0.000164429 ;
 1.68606E+06 0.000168131 ;
 1.68612E+06 0.00017658  ;
 1.68684E+06 0.000282116 ;
 1.68689E+06 0.000289975 ;
 1.68692E+06 0.000296349 ;
 1.68695E+06 0.000304412 ;
 1.68698E+06 0.000312005 ;
 1.687E+06   0.000321171 ;
 1.68702E+06 0.00033201  ;
 1.68705E+06 0.00034442  ;
 1.68708E+06 0.000363028 ;
 1.68712E+06 0.000393878 ;
 1.68731E+06 0.000525647 ;
 1.68778E+06 0.0008573   ;
 1.68783E+06 0.000893112 ;
 1.68786E+06 0.000922193 ;
 1.68788E+06 0.000940401 ;
 1.68789E+06 0.000962696 ;
 1.68791E+06 0.000990679 ;
 1.68792E+06 0.00101659  ;
 1.68793E+06 0.00104767  ;
 1.68794E+06 0.00108488  ;
 1.68795E+06 0.00112913  ;
 1.68796E+06 0.00118132  ;
 1.68798E+06 0.0012421   ;
 1.68799E+06 0.00131211  ;
 1.688E+06   0.00139157  ;
 1.68801E+06 0.00148719  ;
 1.68802E+06 0.00159358  ;
 1.68804E+06 0.00171042  ;
 1.68805E+06 0.00183684  ;
 1.68806E+06 0.00197212  ;
 1.68808E+06 0.002189    ;
 1.6881E+06  0.00241916  ;
 1.68813E+06 0.00282351  ;
 1.68819E+06 0.00358152  ;
 1.6886E+06  0.00923805  ;
 1.68864E+06 0.00978419  ;
 1.68866E+06 0.0101901   ;
 1.68868E+06 0.010542    ;
 1.6887E+06  0.0109626   ;
 1.68871E+06 0.0113      ;
 1.68872E+06 0.0116986   ;
 1.68874E+06 0.0121765   ;
 1.68875E+06 0.0125993   ;
 1.68876E+06 0.0130883   ;
 1.68877E+06 0.0136556   ;
 1.68878E+06 0.0143132   ;
 1.68878E+06 0.0150786   ;
 1.68879E+06 0.0159665   ;
 1.6888E+06  0.0166363   ;
 1.68881E+06 0.0173786   ;
 1.68881E+06 0.0181975   ;
 1.68882E+06 0.0191028   ;
 1.68882E+06 0.0201012   ;
 1.68883E+06 0.0212058   ;
 1.68884E+06 0.0224235   ;
 1.68884E+06 0.0237686   ;
 1.68885E+06 0.0252503   ;
 1.68886E+06 0.0268888   ;
 1.68886E+06 0.028692    ;
 1.68887E+06 0.0306801   ;
 1.68888E+06 0.0328646   ;
 1.68888E+06 0.0352713   ;
 1.68889E+06 0.0379098   ;
 1.68889E+06 0.040805    ;
 1.6889E+06  0.0439688   ;
 1.68891E+06 0.047435    ;
 1.68891E+06 0.0512069   ;
 1.68892E+06 0.0553104   ;
 1.68892E+06 0.059751    ;
 1.68893E+06 0.0645585   ;
 1.68894E+06 0.0697266   ;
 1.68894E+06 0.0752745   ;
 1.68895E+06 0.0811915   ;
 1.68896E+06 0.0875009   ;
 1.68897E+06 0.0976464   ;
 1.68898E+06 0.108551    ;
 1.68898E+06 0.120168    ;
 1.689E+06   0.136485    ;
 1.68902E+06 0.17461     ;
 1.68904E+06 0.190878    ;
 1.68905E+06 0.20224     ;
 1.68906E+06 0.212568    ;
 1.68907E+06 0.221607    ;
 1.68908E+06 0.229101    ;
 1.68908E+06 0.234877    ;
 1.68909E+06 0.238759    ;
 1.6891E+06  0.240661    ;
 1.68911E+06 0.240847    ;
 1.68912E+06 0.240056    ;
 1.68912E+06 0.237293    ;
 1.68913E+06 0.232645    ;
 1.68914E+06 0.226281    ;
 1.68915E+06 0.218383    ;
 1.68916E+06 0.209186    ;
 1.68918E+06 0.195324    ;
 1.68919E+06 0.180187    ;
 1.68922E+06 0.136651    ;
 1.68923E+06 0.121518    ;
 1.68924E+06 0.110758    ;
 1.68925E+06 0.100592    ;
 1.68926E+06 0.0910916   ;
 1.68927E+06 0.0822812   ;
 1.68928E+06 0.0768066   ;
 1.68928E+06 0.0716474   ;
 1.68929E+06 0.0668033   ;
 1.6893E+06  0.0622682   ;
 1.6893E+06  0.0580292   ;
 1.68931E+06 0.0540774   ;
 1.68932E+06 0.0504065   ;
 1.68932E+06 0.0470042   ;
 1.68933E+06 0.0438559   ;
 1.68933E+06 0.0409487   ;
 1.68934E+06 0.038271    ;
 1.68935E+06 0.0358092   ;
 1.68935E+06 0.033548    ;
 1.68936E+06 0.0314747   ;
 1.68937E+06 0.0295784   ;
 1.68937E+06 0.0278467   ;
 1.68938E+06 0.0262667   ;
 1.68938E+06 0.0248271   ;
 1.68939E+06 0.0235179   ;
 1.6894E+06  0.0223287   ;
 1.6894E+06  0.0209944   ;
 1.68941E+06 0.0199246   ;
 1.68942E+06 0.0189694   ;
 1.68943E+06 0.018113    ;
 1.68943E+06 0.0173494   ;
 1.68944E+06 0.0164552   ;
 1.68945E+06 0.0156846   ;
 1.68946E+06 0.0150194   ;
 1.68947E+06 0.0144432   ;
 1.68948E+06 0.0139411   ;
 1.68949E+06 0.0133003   ;
 1.68951E+06 0.0127628   ;
 1.68952E+06 0.0123008   ;
 1.68954E+06 0.0117647   ;
 1.68957E+06 0.0110608   ;
 1.68961E+06 0.0102047   ;
 1.68983E+06 0.0052868   ;
 1.68988E+06 0.00428778  ;
 1.68991E+06 0.00371539  ;
 1.68992E+06 0.00335464  ;
 1.68994E+06 0.00309878  ;
 1.68995E+06 0.0028589   ;
 1.68997E+06 0.00263699  ;
 1.68998E+06 0.00243522  ;
 1.68999E+06 0.00231245  ;
 1.69E+06    0.00215528  ;
 1.69002E+06 0.00203296  ;
 1.69003E+06 0.0019256   ;
 1.69004E+06 0.00183266  ;
 1.69005E+06 0.00175303  ;
 1.69006E+06 0.00168559  ;
 1.69007E+06 0.00162872  ;
 1.69009E+06 0.00158117  ;
 1.6901E+06  0.00152957  ;
 1.69012E+06 0.00148851  ;
 1.69013E+06 0.00145514  ;
 1.69016E+06 0.00141456  ;
 1.69019E+06 0.00137004  ;
 1.69031E+06 0.00121526  ;
 1.69084E+06 0.000568729 ;
 1.69089E+06 0.00051344  ;
 1.69092E+06 0.000478649 ;
 1.69095E+06 0.000454502 ;
 1.69097E+06 0.000432659 ;
 1.69099E+06 0.00041357  ;
 1.69102E+06 0.000397484 ;
 1.69104E+06 0.000384347 ;
 1.69106E+06 0.000373843 ;
 1.69109E+06 0.000365445 ;
 1.69112E+06 0.000354614 ;
 1.69119E+06 0.000340999 ;
 1.69188E+06 0.00020488  ;
 1.69194E+06 0.000193507 ;
 1.69198E+06 0.000186332 ;
 1.69202E+06 0.000182484 ;
 1.69206E+06 0.000178114 ;
 1.69211E+06 0.000174976 ;
 1.69225E+06 0.000167868 ;
 1.69388E+06 8.95729E-05 ;
 1.69394E+06 8.67973E-05 ;
 1.694E+06   8.45342E-05 ;
 1.69405E+06 8.33048E-05 ;
 1.69412E+06 8.19321E-05 ;
 1.69594E+06 5.8529E-05  ;
 1.696E+06   5.78836E-05 ;
 1.69612E+06 5.70083E-05 ;
 1.69775E+06 4.83937E-05 ;
 1.698E+06   4.71464E-05 ;
 1.699E+06   4.438E-05   ;
 1.7E+06     4.17449E-05 ;
 1.70375E+06 3.86112E-05 ;
 1.71E+06    3.34985E-05 ;
 1.72E+06    3.15638E-05 ;
 1.74E+06    3.03211E-05 ;
 1.76E+06    2.98303E-05 ;
 1.8E+06     2.92705E-05 ;
 1.81994E+06 2.93208E-05 ;
 1.822E+06   2.95538E-05 ;
 1.824E+06   3.00382E-05 ;
 1.826E+06   3.10693E-05 ;
 1.828E+06   3.33829E-05 ;
 1.8295E+06  3.71725E-05 ;
 1.83E+06    3.84918E-05 ;
 1.83188E+06 4.5804E-05  ;
 1.832E+06   4.61985E-05 ;
 1.83225E+06 4.64487E-05 ;
 1.83394E+06 4.7424E-05  ;
 1.834E+06   4.73913E-05 ;
 1.83425E+06 4.68299E-05 ;
 1.836E+06   4.22257E-05 ;
 1.838E+06   3.79863E-05 ;
 1.84E+06    3.54456E-05 ;
 1.842E+06   3.39284E-05 ;
 1.844E+06   3.29646E-05 ;
 1.846E+06   3.23031E-05 ;
 1.848E+06   3.18418E-05 ;
 1.851E+06   3.1365E-05  ;
 1.852E+06   3.12315E-05 ;
 1.858E+06   3.07211E-05 ;
 1.868E+06   3.028E-05   ;
 1.885E+06   2.99202E-05 ;
 1.9E+06     2.97401E-05 ;
 1.97751E+06 2.92259E-05 ;
 2E+06       2.91005E-05 ;
 2.1E+06     3.02085E-05 ;
 2.26251E+06 3.0681E-05  ;
 2.43386E+06 3.13821E-05 ;
 2.6E+06     3.226E-05   ;
 2.81975E+06 3.37588E-05 ;
 3E+06       3.52386E-05 ;
 3.52469E+06 4.06926E-05 ;
 4.38146E+06 5.06574E-05 ;
 4.5E+06     5.20501E-05 ;
 5E+06       5.68319E-05 ;
 5.5E+06     5.94081E-05 ;
 6E+06       5.97324E-05 ;
 6.5E+06     5.87953E-05 ;
 7E+06       4.98409E-05 ;
 7.5E+06     4.68924E-05 ;
 8E+06       4.28145E-05 ;
 8.5E+06     4.02536E-05 ;
 9.06349E+06 3.81792E-05 ;
 9.83886E+06 3.5637E-05  ;
 1E+07       3.50916E-05 ;
 1.01411E+07 3.47779E-05 ;
 1.02842E+07 3.44599E-05 ;
 1.04292E+07 3.41374E-05 ;
 1.05E+07    3.39801E-05 ;
 1.06481E+07 3.36108E-05 ;
 1.07984E+07 3.32363E-05 ;
 1.09507E+07 3.28565E-05 ;
 1.1E+07     3.27336E-05 ;
 1.11552E+07 3.23934E-05 ;
 1.13126E+07 3.20484E-05 ;
 1.14722E+07 3.16985E-05 ;
 1.15E+07    3.16375E-05 ;
 1.16622E+07 3.13198E-05 ;
 1.18268E+07 3.09977E-05 ;
 1.19936E+07 3.06711E-05 ;
 1.2E+07     3.06586E-05 ;
 1.21693E+07 3.03047E-05 ;
 1.2341E+07  2.99457E-05 ;
 1.25E+07    2.96133E-05 ;
 1.26764E+07 2.93351E-05 ;
 1.28552E+07 2.90531E-05 ;
 1.3E+07     2.88247E-05 ;
 1.31834E+07 2.86547E-05 ;
 1.33694E+07 2.84823E-05 ;
 1.35E+07    2.83613E-05 ;
 1.36905E+07 2.83566E-05 ;
 1.38836E+07 2.83519E-05 ;
 1.4E+07     2.8349E-05  ;
 1.41975E+07 2.85455E-05 ;
 1.43978E+07 2.87448E-05 ;
 1.45E+07    2.88465E-05 ;
 1.47046E+07 2.92853E-05 ;
 1.4912E+07  2.97302E-05 ;
 1.5E+07     2.99189E-05 ;
 1.52116E+07 3.06839E-05 ;
 1.54262E+07 3.14598E-05 ;
 1.55E+07    3.17265E-05 ;
 1.57187E+07 3.27921E-05 ;
 1.59404E+07 3.38728E-05 ;
 1.6E+07     3.41631E-05 ;
 1.62257E+07 3.55812E-05 ;
 1.64546E+07 3.70193E-05 ;
 1.65E+07    3.73042E-05 ;
 1.67328E+07 3.93391E-05 ;
 1.69689E+07 4.14027E-05 ;
 1.7E+07     4.1675E-05  ;
 1.72398E+07 4.43651E-05 ;
 1.74831E+07 4.70932E-05 ;
 1.75E+07    4.72832E-05 ;
 1.77469E+07 5.08645E-05 ;
 1.79973E+07 5.44962E-05 ;
 1.8E+07     5.45358E-05 ;
 1.82539E+07 5.9176E-05  ;
 1.85E+07    6.3672E-05  ;
 1.8761E+07  6.96605E-05 ;
 1.9E+07     7.51441E-05 ;
 1.92681E+07 8.24795E-05 ;
 1.95E+07    8.88267E-05 ;
 1.97751E+07 9.76419E-05 ;
 2E+07       0.000104848 ;
 2.02822E+07 0.000115276 ;
 2.05683E+07 0.000125851 ;
 2.08585E+07 0.000136576 ;
 2.11528E+07 0.000147451 ;
 2.14512E+07 0.00015848  ;
 2.17538E+07 0.000169665 ;
 2.2E+07     0.000178763 ;
 2.23104E+07 0.000182456 ;
 2.26251E+07 0.000186201 ;
 2.29443E+07 0.000189999 ;
 2.3268E+07  0.000193851 ;
 2.35963E+07 0.000197757 ;
 2.39292E+07 0.000201718 ;
 2.4E+07     0.00020256  ;
 2.43386E+07 0.000196664 ;
 2.4682E+07  0.000190684 ;
 2.50302E+07 0.00018462  ;
 2.53833E+07 0.000178471 ;
 2.57414E+07 0.000172234 ;
 2.6E+07     0.000167732 ;
 2.63668E+07 0.000159845 ;
 2.67388E+07 0.000151848 ;
 2.7116E+07  0.000143738 ;
 2.74986E+07 0.000135513 ;
 2.78866E+07 0.000127172 ;
 2.8E+07     0.000124733 ;
 2.8395E+07  0.000117854 ;
 2.87956E+07 0.000110877 ;
 2.92019E+07 0.000103802 ;
 2.96139E+07 9.66271E-05 ;
 3E+07       8.99026E-05 ;
 3E+07       0           ;
 3.04233E+07 0           ;
 3.08525E+07 0           ;
 3.12877E+07 0           ;
 3.17292E+07 0           ;
 3.21768E+07 0           ;
 3.26308E+07 0           ;
 3.30911E+07 0           ;
 3.3558E+07  0           ;
 3.40314E+07 0           ;
 3.45115E+07 0           ;
 3.49984E+07 0           ;
 3.54922E+07 0           ;
 3.59929E+07 0           ;
 3.65007E+07 0           ;
 3.70157E+07 0           ;
 3.75379E+07 0           ;
 3.80675E+07 0           ;
 3.86046E+07 0           ;
 3.91492E+07 0           ;
 3.97015E+07 0           ;
 4.02617E+07 0           ;
 4.08297E+07 0           ;
 4.14057E+07 0           ;
 4.19899E+07 0           ;
 4.25823E+07 0           ;
 4.3183E+07  0           ;
 4.37923E+07 0           ;
 4.44101E+07 0           ;
 4.50366E+07 0           ;
 4.5672E+07  0           ;
 4.63164E+07 0           ;
 4.69698E+07 0           ;
 4.76325E+07 0           ;
 4.83045E+07 0           ;
 4.8986E+07  0           ;
 4.96771E+07 0           ;
 5.03779E+07 0           ;
 5.10887E+07 0           ;
 5.18094E+07 0           ;
 5.25404E+07 0           ;
 5.32816E+07 0           ;
 5.40333E+07 0           ;
 5.47956E+07 0           ;
 5.55687E+07 0           ;
 5.63527E+07 0           ;
 5.71477E+07 0           ;
 5.7954E+07  0           ;
 5.87716E+07 0           ;
 5.96008E+07 0           ;
 6.04416E+07 0           ;
 6.12943E+07 0           ;
 6.21591E+07 0           ;
 6.30361E+07 0           ;
 6.39254E+07 0           ;
 6.48272E+07 0           ;
 6.57418E+07 0           ;
 6.66693E+07 0           ;
 6.76099E+07 0           ;
 6.85638E+07 0           ;
 6.95311E+07 0           ;
 7.05121E+07 0           ;
 7.15068E+07 0           ;
 7.25157E+07 0           ;
 7.35388E+07 0           ;
 7.45762E+07 0           ;
 7.56284E+07 0           ;
 7.66954E+07 0           ;
 7.77774E+07 0           ;
 7.88747E+07 0           ;
 7.99875E+07 0           ;
 8.1116E+07  0           ;
 8.22604E+07 0           ;
 8.34209E+07 0           ;
 8.45978E+07 0           ;
 8.57913E+07 0           ;
 8.70017E+07 0           ;
 8.82291E+07 0           ;
 8.94739E+07 0           ;
 9.07362E+07 0           ;
 9.20163E+07 0           ;
 9.33145E+07 0           ;
 9.4631E+07  0           ;
 9.59661E+07 0           ;
 9.732E+07   0           ;
 9.8693E+07  0           ;
 1.00085E+08 0           ;
 1.01497E+08 0           ;
 1.02929E+08 0           ;
 1.04382E+08 0           ;
 1.05854E+08 0           ;
 1.07348E+08 0           ;
 1.08862E+08 0           ;
 1.10398E+08 0           ;
 1.11955E+08 0           ;
 1.13535E+08 0           ;
 1.15137E+08 0           ;
 1.16761E+08 0           ;
 1.18408E+08 0           ;
 1.20079E+08 0           ;
 1.21773E+08 0           ;
 1.23491E+08 0           ;
 1.25233E+08 0           ;
 1.27E+08    0           ;
 1.28792E+08 0           ;
 1.30609E+08 0           ;
 1.32451E+08 0           ;
 1.3432E+08  0           ;
 1.36215E+08 0           ;
 1.38137E+08 0           ;
 1.40086E+08 0           ;
 1.42062E+08 0           ;
 1.44066E+08 0           ;
 1.46099E+08 0           ;
 1.4816E+08  0           ;
 1.5E+08     0           ];

EnH_s = hn_el(:,1); sigmaH_s = hn_el(:,2);
EnH_a = hn_y(:,1); sigmaH_a = hn_y(:,2);
EnO_s = On_el(:,1); sigmaO_s = On_el(:,2);
EnO_a = On_y(:,1); sigmaO_a = On_y(:,2);

%Cross section to mean free path
dn_h2o = 0.997; %g/cc
mw_h2o = 18.0153; %g
mol = 6.022*10^23;
N_h2o = (dn_h2o/mw_h2o)*mol;
N_h = 2*N_h2o;

%sum_h2o_s = (sigmaH_s*N_h + sigmaO_s*N_h2o)*10^(-24); %scat h2o
%sum_h2o_a = (sigmaH_a*N_h + sigmaO_a*N_h2o)*10^(-24); %abs h2o
%
%lamda_s_h2o = 1/sum_h2o_s; %scat h2o
%lamda_a_h2o = 1/sum_h2o_a; %abs h2o

